*RAS_DATA_START
*RAS_HEADER_START
*DISP_FMT_X "%.2f"
*DISP_FMT_Y "%.0f"
*DISP_FULLSCALE "779763.9296120625"
*DISP_LINE_COLOR "255.0000000000"
*DISP_LINE_STYLE "0.0000000000"
*DISP_LINE_WIDTH "0.2500000000"
*DISP_NOTE "測定データ-2"
*DISP_OFFSET_Y "0.0000000000"
*DISP_PEAKSEARCH_UNIT_Y "cps"
*DISP_RANGE_BOTTOM "0.0000000000"
*DISP_RANGE_LEFT "20.0000000000"
*DISP_RANGE_LOGCUTOFF "0.0100000000"
*DISP_RANGE_RIGHT "90.0000000000"
*DISP_RANGE_TOP "779763.9296120625"
*DISP_SCALE_MODE_Y "1.0000000000"
*DISP_TAB_NAME "2θ/ω"
*DISP_TITLE_Y "強度"
*DISP_UNIT_Y "cps"
*DISP_WINDOW_NAME "MSG_MACROENGINE"
*FILE_COMMENT " "
*FILE_MD5 ""
*FILE_MEMO " "
*FILE_OPERATOR "administrator"
*FILE_PART_ID "MEAS_KHP2_00061"
*FILE_SAMPLE "A59"
*FILE_TYPE "RAS_RAW"
*FILE_USERGROUP "システムマネージャ"
*FILE_VERSION "1.0000000000"
*HW_ATTACHMENT_ID "ATT0022"
*HW_ATTACHMENT_NAME "RxRy|RxRy"
*HW_COUNTER_ID-0 "CUT0021"
*HW_COUNTER_ID-1 "CUT0051"
*HW_COUNTER_ID-2 "CUT0020"
*HW_COUNTER_ID-3 "CSL0021"
*HW_COUNTER_ID-4 "CMC0021"
*HW_COUNTER_NAME-0 "SC-70|SC-70"
*HW_COUNTER_NAME-1 "HyPix 3000(H)|HyPix 3000(H)"
*HW_COUNTER_NAME-2 "None|None"
*HW_COUNTER_NAME-3 "BBM|BBM"
*HW_COUNTER_NAME-4 "検出器モノクロメータ|Detector monochromator"
*HW_COUNTER_SELECT_NAME "HyPix 3000(H)|HyPix 3000(H)"
*HW_GONIOMETER_ID "GON0024"
*HW_GONIOMETER_NAME "SmartLab(In-plane)|SmartLab(In-plane)"
*HW_GONIOMETER_RADIUS-0 "90.0"
*HW_GONIOMETER_RADIUS-1 "114.0"
*HW_GONIOMETER_RADIUS-2 "190.0"
*HW_GONIOMETER_RADIUS-3 "300.0"
*HW_GONIOMETER_RADIUS-4 "187.0"
*HW_GONIOMETER_RADIUS-5 "300.0"
*HW_GONIOMETER_RADIUS-6 "113.0"
*HW_GONIOMETER_RADIUS-7 "331.0"
*HW_I_OPT_ID-0 "CBO0021"
*HW_I_OPT_ID-1 "ICR0021"
*HW_I_OPT_ID-2 "ISL0021"
*HW_I_OPT_ID-3 "ISO0021"
*HW_I_OPT_ID-4 "IAD0021"
*HW_I_OPT_ID-5 "IPR0001"
*HW_I_OPT_NAME-0 "CBOユニット|CBO unit"
*HW_I_OPT_NAME-1 "標準入射光学ユニット|Standard incident optical unit"
*HW_I_OPT_NAME-2 "標準入射スリットボックス|Standard incident slit box"
*HW_I_OPT_NAME-3 "入射平行スリット|Incident parallel slit"
*HW_I_OPT_NAME-4 "長手制限スリット|Length limiting slit"
*HW_I_OPT_NAME-5 "None|None"
*HW_R_ATTENUATER_AUTOMODE "0"
*HW_R_OPT_ID-0 "RSS0022"
*HW_R_OPT_ID-1 "RCR0022"
*HW_R_OPT_ID-2 "RSO0021"
*HW_R_OPT_ID-3 "RRS0022"
*HW_R_OPT_ID-4 "ATN0020"
*HW_R_OPT_ID-5 "RFL0021"
*HW_R_OPT_ID-6 "RAD0021"
*HW_R_OPT_NAME-0 "受光スリットボックス1(Zr軸付)|Receiving slit box # 1 (w/ Zr Axis)"
*HW_R_OPT_NAME-1 "標準受光光学ユニット1|Standard receiving unit # 1"
*HW_R_OPT_NAME-2 "標準受光光学ユニット2|Standard receiving optical unit # 2"
*HW_R_OPT_NAME-3 "仮想受光スリット2|Virtual receiving slit #2"
*HW_R_OPT_NAME-4 "無し|None"
*HW_R_OPT_NAME-5 "Cu Kβ|Cu K-beta"
*HW_R_OPT_NAME-6 "調整用受光スリット|Alignment receiving slit"
*HW_SAMPLE_HOLDER_ID "SMP0021"
*HW_SAMPLE_HOLDER_NAME "χφZクレードル|Chi phi Z cradle"
*HW_XG_CURRENT_MAX "200"
*HW_XG_CURRENT_MIN "10"
*HW_XG_CURRENT_RESOLUTION "1"
*HW_XG_CURRENT_UNIT "mA"
*HW_XG_FOCUS "0.4mm x 8mm"
*HW_XG_FOCUS_TYPE "Normal"
*HW_XG_ID "1700"
*HW_XG_NAME "9kW 開放管(45kV 200mA ID:1700)|9kW Rotating anode(45kV 200mA ID:1700)"
*HW_XG_TARGET_ATOMIC_NUMBER "29.0000000000"
*HW_XG_TARGET_NAME "Cu"
*HW_XG_TYPE "Rota"
*HW_XG_VOLTAGE_MAX "45"
*HW_XG_VOLTAGE_MIN "20"
*HW_XG_VOLTAGE_RESOLUTION "1"
*HW_XG_VOLTAGE_UNIT "kV"
*HW_XG_WATT_MAX "9"
*HW_XG_WATT_UNIT "kW"
*HW_XG_WAVE_LENGTH_ALPHA1 "1.540593"
*HW_XG_WAVE_LENGTH_ALPHA2 "1.544414"
*HW_XG_WAVE_LENGTH_BETA "1.392250"
*MEAS_COND_AXIS_NAME-0 "2θ/θ"
*MEAS_COND_AXIS_NAME-1 "2θ"
*MEAS_COND_AXIS_NAME-2 "ω"
*MEAS_COND_AXIS_NAME-3 "χ"
*MEAS_COND_AXIS_NAME-4 "φ"
*MEAS_COND_AXIS_NAME-5 "Z"
*MEAS_COND_AXIS_NAME-6 "Rx"
*MEAS_COND_AXIS_NAME-7 "Ry"
*MEAS_COND_AXIS_NAME-8 "2θ/ω"
*MEAS_COND_AXIS_NAME-9 "2θχ"
*MEAS_COND_AXIS_NAME-10 "2θχ/φ"
*MEAS_COND_AXIS_NAME-11 "α"
*MEAS_COND_AXIS_NAME-12 "β"
*MEAS_COND_AXIS_NAME-13 "θs"
*MEAS_COND_AXIS_NAME-14 "θd"
*MEAS_COND_AXIS_NAME-15 "Ts"
*MEAS_COND_AXIS_NAME-16 "CBO選択スリット"
*MEAS_COND_AXIS_NAME-17 "M"
*MEAS_COND_AXIS_NAME-18 "入射平行スリット"
*MEAS_COND_AXIS_NAME-19 "入射スリット"
*MEAS_COND_AXIS_NAME-20 ""
*MEAS_COND_AXIS_NAME-21 "Zs"
*MEAS_COND_AXIS_NAME-22 "入射光学素子"
*MEAS_COND_AXIS_NAME-23 "ωm"
*MEAS_COND_AXIS_NAME-24 "長手制限スリット"
*MEAS_COND_AXIS_NAME-25 "センタースリット"
*MEAS_COND_AXIS_NAME-26 "フィルター"
*MEAS_COND_AXIS_NAME-27 "受光スリット1"
*MEAS_COND_AXIS_NAME-28 "受光スリット2"
*MEAS_COND_AXIS_NAME-29 "受光光学素子"
*MEAS_COND_AXIS_NAME-30 "受光平行スリット"
*MEAS_COND_AXIS_NAME-31 "調整用受光スリット"
*MEAS_COND_AXIS_NAME-32 ""
*MEAS_COND_AXIS_NAME-33 ""
*MEAS_COND_AXIS_NAME-34 "Zd"
*MEAS_COND_AXIS_NAME-35 "アッテネータ"
*MEAS_COND_AXIS_NAME-36 "検出器モノクロメータ"
*MEAS_COND_AXIS_NAME-37 "モノクロメータスリット"
*MEAS_COND_AXIS_NAME-38 "2θB"
*MEAS_COND_AXIS_NAME-39 ""
*MEAS_COND_AXIS_NAME-40 ""
*MEAS_COND_AXIS_NAME-41 "Zr"
*MEAS_COND_AXIS_NAME-42 "プライマリビーム"
*MEAS_COND_AXIS_NAME_INTERNAL-0 "TwoThetaTheta"
*MEAS_COND_AXIS_NAME_INTERNAL-1 "TwoTheta"
*MEAS_COND_AXIS_NAME_INTERNAL-2 "Omega"
*MEAS_COND_AXIS_NAME_INTERNAL-3 "Chi"
*MEAS_COND_AXIS_NAME_INTERNAL-4 "Phi"
*MEAS_COND_AXIS_NAME_INTERNAL-5 "Z"
*MEAS_COND_AXIS_NAME_INTERNAL-6 "Rx"
*MEAS_COND_AXIS_NAME_INTERNAL-7 "Ry"
*MEAS_COND_AXIS_NAME_INTERNAL-8 "TwoThetaOmega"
*MEAS_COND_AXIS_NAME_INTERNAL-9 "TwoThetaChi"
*MEAS_COND_AXIS_NAME_INTERNAL-10 "TwoThetaChiPhi"
*MEAS_COND_AXIS_NAME_INTERNAL-11 "Alpha"
*MEAS_COND_AXIS_NAME_INTERNAL-12 "Beta"
*MEAS_COND_AXIS_NAME_INTERNAL-13 "ThetaS"
*MEAS_COND_AXIS_NAME_INTERNAL-14 "ThetaD"
*MEAS_COND_AXIS_NAME_INTERNAL-15 "Ts"
*MEAS_COND_AXIS_NAME_INTERNAL-16 "CBO"
*MEAS_COND_AXIS_NAME_INTERNAL-17 "CBO-M"
*MEAS_COND_AXIS_NAME_INTERNAL-18 "IncidentSollerSlit"
*MEAS_COND_AXIS_NAME_INTERNAL-19 "IncidentSlitBox"
*MEAS_COND_AXIS_NAME_INTERNAL-20 "IncidentSlitBox-_Axis"
*MEAS_COND_AXIS_NAME_INTERNAL-21 "Zs"
*MEAS_COND_AXIS_NAME_INTERNAL-22 "IncidentMonochromator"
*MEAS_COND_AXIS_NAME_INTERNAL-23 "IncidentMonochromator-OmegaM"
*MEAS_COND_AXIS_NAME_INTERNAL-24 "IncidentAxdSlit"
*MEAS_COND_AXIS_NAME_INTERNAL-25 "CenterSlit"
*MEAS_COND_AXIS_NAME_INTERNAL-26 "Filter"
*MEAS_COND_AXIS_NAME_INTERNAL-27 "ReceivingSlitBox1"
*MEAS_COND_AXIS_NAME_INTERNAL-28 "ReceivingSlitBox2"
*MEAS_COND_AXIS_NAME_INTERNAL-29 "ReceivingOptics"
*MEAS_COND_AXIS_NAME_INTERNAL-30 "ReceivingSollerSlit"
*MEAS_COND_AXIS_NAME_INTERNAL-31 "ReceivingAxdSlit"
*MEAS_COND_AXIS_NAME_INTERNAL-32 "ReceivingSlitBox1-_Axis"
*MEAS_COND_AXIS_NAME_INTERNAL-33 "ReceivingSlitBox2-_Axis"
*MEAS_COND_AXIS_NAME_INTERNAL-34 "ReceivingSlitBox2-Zd"
*MEAS_COND_AXIS_NAME_INTERNAL-35 "Attenuator"
*MEAS_COND_AXIS_NAME_INTERNAL-36 "CounterMonochromator"
*MEAS_COND_AXIS_NAME_INTERNAL-37 "CounterSlit"
*MEAS_COND_AXIS_NAME_INTERNAL-38 "TwoThetaB"
*MEAS_COND_AXIS_NAME_INTERNAL-39 "AlphaR"
*MEAS_COND_AXIS_NAME_INTERNAL-40 "BetaR"
*MEAS_COND_AXIS_NAME_INTERNAL-41 "ReceivingSlitBox1-Zr"
*MEAS_COND_AXIS_NAME_INTERNAL-42 "IncidentPrimary"
*MEAS_COND_AXIS_NAME_MAGICNO-0 "83951616.0000000000"
*MEAS_COND_AXIS_NAME_MAGICNO-1 "268632064.0000000000"
*MEAS_COND_AXIS_NAME_MAGICNO-2 "268500992.0000000000"
*MEAS_COND_AXIS_NAME_MAGICNO-3 "268500992.0000000000"
*MEAS_COND_AXIS_NAME_MAGICNO-4 "268500992.0000000000"
*MEAS_COND_AXIS_NAME_MAGICNO-5 "285278208.0000000000"
*MEAS_COND_AXIS_NAME_MAGICNO-6 "285278208.0000000000"
*MEAS_COND_AXIS_NAME_MAGICNO-7 "285278208.0000000000"
*MEAS_COND_AXIS_NAME_MAGICNO-8 "83951616.0000000000"
*MEAS_COND_AXIS_NAME_MAGICNO-9 "268632064.0000000000"
*MEAS_COND_AXIS_NAME_MAGICNO-10 "83951616.0000000000"
*MEAS_COND_AXIS_NAME_MAGICNO-11 "17039360.0000000000"
*MEAS_COND_AXIS_NAME_MAGICNO-12 "17039360.0000000000"
*MEAS_COND_AXIS_NAME_MAGICNO-13 "131072.0000000000"
*MEAS_COND_AXIS_NAME_MAGICNO-14 "131072.0000000000"
*MEAS_COND_AXIS_NAME_MAGICNO-15 "318898176.0000000000"
*MEAS_COND_AXIS_NAME_MAGICNO-16 "20971521.0000000000"
*MEAS_COND_AXIS_NAME_MAGICNO-17 "285343744.0000000000"
*MEAS_COND_AXIS_NAME_MAGICNO-18 "20971521.0000000000"
*MEAS_COND_AXIS_NAME_MAGICNO-19 "22020097.0000000000"
*MEAS_COND_AXIS_NAME_MAGICNO-20 "25165824.0000000000"
*MEAS_COND_AXIS_NAME_MAGICNO-21 "318898176.0000000000"
*MEAS_COND_AXIS_NAME_MAGICNO-22 "20971521.0000000000"
*MEAS_COND_AXIS_NAME_MAGICNO-23 "285343744.0000000000"
*MEAS_COND_AXIS_NAME_MAGICNO-24 "20971521.0000000000"
*MEAS_COND_AXIS_NAME_MAGICNO-25 "20971521.0000000000"
*MEAS_COND_AXIS_NAME_MAGICNO-26 "20971521.0000000000"
*MEAS_COND_AXIS_NAME_MAGICNO-27 "23068673.0000000000"
*MEAS_COND_AXIS_NAME_MAGICNO-28 "23068673.0000000000"
*MEAS_COND_AXIS_NAME_MAGICNO-29 "20971521.0000000000"
*MEAS_COND_AXIS_NAME_MAGICNO-30 "20971521.0000000000"
*MEAS_COND_AXIS_NAME_MAGICNO-31 "20971521.0000000000"
*MEAS_COND_AXIS_NAME_MAGICNO-32 "25165824.0000000000"
*MEAS_COND_AXIS_NAME_MAGICNO-33 "25165824.0000000000"
*MEAS_COND_AXIS_NAME_MAGICNO-34 "285343744.0000000000"
*MEAS_COND_AXIS_NAME_MAGICNO-35 "0.0000000000"
*MEAS_COND_AXIS_NAME_MAGICNO-36 "20971521.0000000000"
*MEAS_COND_AXIS_NAME_MAGICNO-37 "20971521.0000000000"
*MEAS_COND_AXIS_NAME_MAGICNO-38 "17039360.0000000000"
*MEAS_COND_AXIS_NAME_MAGICNO-39 "8388608.0000000000"
*MEAS_COND_AXIS_NAME_MAGICNO-40 "8388608.0000000000"
*MEAS_COND_AXIS_NAME_MAGICNO-41 "285343744.0000000000"
*MEAS_COND_AXIS_NAME_MAGICNO-42 "20971521.0000000000"
*MEAS_COND_AXIS_OFFSET-0 "-"
*MEAS_COND_AXIS_OFFSET-1 "0.8399000000"
*MEAS_COND_AXIS_OFFSET-2 "0.6789000000"
*MEAS_COND_AXIS_OFFSET-3 "0.0000000000"
*MEAS_COND_AXIS_OFFSET-4 "0.0000000000"
*MEAS_COND_AXIS_OFFSET-5 "-"
*MEAS_COND_AXIS_OFFSET-6 "-"
*MEAS_COND_AXIS_OFFSET-7 "-"
*MEAS_COND_AXIS_OFFSET-8 "-"
*MEAS_COND_AXIS_OFFSET-9 "0.0000000000"
*MEAS_COND_AXIS_OFFSET-10 "-"
*MEAS_COND_AXIS_OFFSET-11 "-"
*MEAS_COND_AXIS_OFFSET-12 "-"
*MEAS_COND_AXIS_OFFSET-13 "0.6789000000"
*MEAS_COND_AXIS_OFFSET-14 "0.1610000000"
*MEAS_COND_AXIS_OFFSET-15 "-"
*MEAS_COND_AXIS_OFFSET-16 "-"
*MEAS_COND_AXIS_OFFSET-17 "-"
*MEAS_COND_AXIS_OFFSET-18 "-"
*MEAS_COND_AXIS_OFFSET-19 "-"
*MEAS_COND_AXIS_OFFSET-20 "-"
*MEAS_COND_AXIS_OFFSET-21 "-"
*MEAS_COND_AXIS_OFFSET-22 "-"
*MEAS_COND_AXIS_OFFSET-23 "-"
*MEAS_COND_AXIS_OFFSET-24 "-"
*MEAS_COND_AXIS_OFFSET-25 "-"
*MEAS_COND_AXIS_OFFSET-26 "-"
*MEAS_COND_AXIS_OFFSET-27 "-"
*MEAS_COND_AXIS_OFFSET-28 "-"
*MEAS_COND_AXIS_OFFSET-29 "-"
*MEAS_COND_AXIS_OFFSET-30 "-"
*MEAS_COND_AXIS_OFFSET-31 "-"
*MEAS_COND_AXIS_OFFSET-32 "-"
*MEAS_COND_AXIS_OFFSET-33 "-"
*MEAS_COND_AXIS_OFFSET-34 "-"
*MEAS_COND_AXIS_OFFSET-35 "-"
*MEAS_COND_AXIS_OFFSET-36 "-"
*MEAS_COND_AXIS_OFFSET-37 "-"
*MEAS_COND_AXIS_OFFSET-38 "-"
*MEAS_COND_AXIS_OFFSET-39 "0.0000000000"
*MEAS_COND_AXIS_OFFSET-40 "0.0000000000"
*MEAS_COND_AXIS_OFFSET-41 "-"
*MEAS_COND_AXIS_OFFSET-42 "-"
*MEAS_COND_AXIS_POSITION-0 "20.0000000000"
*MEAS_COND_AXIS_POSITION-1 "20.0000000000"
*MEAS_COND_AXIS_POSITION-2 "10.0000000000"
*MEAS_COND_AXIS_POSITION-3 "0.0000000000"
*MEAS_COND_AXIS_POSITION-4 "0.0000000000"
*MEAS_COND_AXIS_POSITION-5 "-0.5135000000"
*MEAS_COND_AXIS_POSITION-6 "0.0000000000"
*MEAS_COND_AXIS_POSITION-7 "0.0000000000"
*MEAS_COND_AXIS_POSITION-8 "20.0000000000"
*MEAS_COND_AXIS_POSITION-9 "0.0000000000"
*MEAS_COND_AXIS_POSITION-10 "0.0000000000"
*MEAS_COND_AXIS_POSITION-11 "90.0000000000"
*MEAS_COND_AXIS_POSITION-12 "0.0000000000"
*MEAS_COND_AXIS_POSITION-13 "10.0000000000"
*MEAS_COND_AXIS_POSITION-14 "10.0000000000"
*MEAS_COND_AXIS_POSITION-15 "-5.8458800000"
*MEAS_COND_AXIS_POSITION-16 "PB"
*MEAS_COND_AXIS_POSITION-17 "0.0000000000"
*MEAS_COND_AXIS_POSITION-18 "Soller_slit_open_s"
*MEAS_COND_AXIS_POSITION-19 "0.500mm"
*MEAS_COND_AXIS_POSITION-20 "0.5000000000"
*MEAS_COND_AXIS_POSITION-21 "-1.6046900000"
*MEAS_COND_AXIS_POSITION-22 "Ge(220)x2"
*MEAS_COND_AXIS_POSITION-23 "0.0000000000"
*MEAS_COND_AXIS_POSITION-24 "2.0mm"
*MEAS_COND_AXIS_POSITION-25 "None"
*MEAS_COND_AXIS_POSITION-26 "None"
*MEAS_COND_AXIS_POSITION-27 "0.500mm"
*MEAS_COND_AXIS_POSITION-28 "0.500mm"
*MEAS_COND_AXIS_POSITION-29 "PSA_open"
*MEAS_COND_AXIS_POSITION-30 "Soller_slit_5.0deg"
*MEAS_COND_AXIS_POSITION-31 "None"
*MEAS_COND_AXIS_POSITION-32 "0.5000000000"
*MEAS_COND_AXIS_POSITION-33 "0.5000000000"
*MEAS_COND_AXIS_POSITION-34 "0.0000000000"
*MEAS_COND_AXIS_POSITION-35 "-"
*MEAS_COND_AXIS_POSITION-36 "No_unit"
*MEAS_COND_AXIS_POSITION-37 "None"
*MEAS_COND_AXIS_POSITION-38 "20.0000000000"
*MEAS_COND_AXIS_POSITION-39 "0.0000000000"
*MEAS_COND_AXIS_POSITION-40 "0.0000000000"
*MEAS_COND_AXIS_POSITION-41 "-0.3831200000"
*MEAS_COND_AXIS_POSITION-42 "None"
*MEAS_COND_AXIS_UNIT-0 "deg"
*MEAS_COND_AXIS_UNIT-1 "deg"
*MEAS_COND_AXIS_UNIT-2 "deg"
*MEAS_COND_AXIS_UNIT-3 "deg"
*MEAS_COND_AXIS_UNIT-4 "deg"
*MEAS_COND_AXIS_UNIT-5 "mm"
*MEAS_COND_AXIS_UNIT-6 "deg"
*MEAS_COND_AXIS_UNIT-7 "deg"
*MEAS_COND_AXIS_UNIT-8 "deg"
*MEAS_COND_AXIS_UNIT-9 "deg"
*MEAS_COND_AXIS_UNIT-10 "deg"
*MEAS_COND_AXIS_UNIT-11 "deg"
*MEAS_COND_AXIS_UNIT-12 "deg"
*MEAS_COND_AXIS_UNIT-13 "deg"
*MEAS_COND_AXIS_UNIT-14 "deg"
*MEAS_COND_AXIS_UNIT-15 "mm"
*MEAS_COND_AXIS_UNIT-16 ""
*MEAS_COND_AXIS_UNIT-17 "pulse"
*MEAS_COND_AXIS_UNIT-18 ""
*MEAS_COND_AXIS_UNIT-19 ""
*MEAS_COND_AXIS_UNIT-20 "mm"
*MEAS_COND_AXIS_UNIT-21 "mm"
*MEAS_COND_AXIS_UNIT-22 ""
*MEAS_COND_AXIS_UNIT-23 "pulse"
*MEAS_COND_AXIS_UNIT-24 ""
*MEAS_COND_AXIS_UNIT-25 ""
*MEAS_COND_AXIS_UNIT-26 ""
*MEAS_COND_AXIS_UNIT-27 ""
*MEAS_COND_AXIS_UNIT-28 ""
*MEAS_COND_AXIS_UNIT-29 ""
*MEAS_COND_AXIS_UNIT-30 ""
*MEAS_COND_AXIS_UNIT-31 ""
*MEAS_COND_AXIS_UNIT-32 "mm"
*MEAS_COND_AXIS_UNIT-33 "mm"
*MEAS_COND_AXIS_UNIT-34 "mm"
*MEAS_COND_AXIS_UNIT-35 ""
*MEAS_COND_AXIS_UNIT-36 ""
*MEAS_COND_AXIS_UNIT-37 ""
*MEAS_COND_AXIS_UNIT-38 "deg"
*MEAS_COND_AXIS_UNIT-39 "deg"
*MEAS_COND_AXIS_UNIT-40 "deg"
*MEAS_COND_AXIS_UNIT-41 "mm"
*MEAS_COND_AXIS_UNIT-42 ""
*MEAS_COND_COUNTER_CNTLOSS_CORR "0.0000000000"
*MEAS_COND_COUNTER_TAUDIFF "0.0000000000"
*MEAS_COND_COUNTER_TAUINT "0.0000000000"
*MEAS_COND_COUNTER_TEMP_CONDITION "NORMAL"
*MEAS_COND_IRRADIATION_MODE "OFF"
*MEAS_COND_IRRADIATION_WIDTH ""
*MEAS_COND_OPT_ATTR "高分解能平行ビームGe(220)x2/受光スリット"
*MEAS_COND_OPT_NAME "@高分解能PB-Ge(220)x2"
*MEAS_COND_UNSYMMETRIC_MODE "OFF"
*MEAS_COND_XG_CURRENT "200.0000000000"
*MEAS_COND_XG_VOLTAGE "45.0000000000"
*MEAS_COND_XG_WAVE_TYPE "Ka1"
*MEAS_DATA_COUNT "7001.0000000000"
*MEAS_SCAN_AXIS_X "2θ/ω"
*MEAS_SCAN_AXIS_X_INTERNAL "TwoThetaOmega"
*MEAS_SCAN_END_TIME "06/11/19 11:40:25"
*MEAS_SCAN_MODE "CONTINUOUS"
*MEAS_SCAN_MONITOR "0"
*MEAS_SCAN_RESOLUTION_X "0.0002"
*MEAS_SCAN_SPEED "5.158557"
*MEAS_SCAN_SPEED_UNIT "deg/min"
*MEAS_SCAN_SPEED_USER "5.000000"
*MEAS_SCAN_START "20.0000000000"
*MEAS_SCAN_START_TIME "06/11/19 11:26:12"
*MEAS_SCAN_STEP "0.0100000000"
*MEAS_SCAN_STOP "90.0000000000"
*MEAS_SCAN_UNIT_X "deg"
*MEAS_SCAN_UNIT_Y "counts"
*RAS_HEADER_END
*RAS_INT_START
20.0000 0.9849 1.0000
20.0100 2.9704 1.0000
20.0200 2.0000 1.0000
20.0300 2.9720 1.0000
20.0400 2.0164 1.0000
20.0500 1.0085 1.0000
20.0600 0.0000 1.0000
20.0700 0.0000 1.0000
20.0800 0.9929 1.0000
20.0900 0.0000 1.0000
20.1000 0.0000 1.0000
20.1100 4.9503 1.0000
20.1200 1.9939 1.0000
20.1300 1.9871 1.0000
20.1400 0.0000 1.0000
20.1500 0.0000 1.0000
20.1600 1.9694 1.0000
20.1700 2.0033 1.0000
20.1800 3.0117 1.0000
20.1900 1.9834 1.0000
20.2000 1.9852 1.0000
20.2100 0.0000 1.0000
20.2200 1.9954 1.0000
20.2300 1.9822 1.0000
20.2400 1.9992 1.0000
20.2500 0.0000 1.0000
20.2600 0.9914 1.0000
20.2700 0.0000 1.0000
20.2800 1.0011 1.0000
20.2900 1.9798 1.0000
20.3000 0.0000 1.0000
20.3100 1.0166 1.0000
20.3200 3.0156 1.0000
20.3300 1.0058 1.0000
20.3400 0.9985 1.0000
20.3500 0.9883 1.0000
20.3600 0.0000 1.0000
20.3700 1.9838 1.0000
20.3800 0.0000 1.0000
20.3900 3.0022 1.0000
20.4000 0.0000 1.0000
20.4100 1.0109 1.0000
20.4200 1.9809 1.0000
20.4300 0.9978 1.0000
20.4400 3.0034 1.0000
20.4500 0.0000 1.0000
20.4600 0.0000 1.0000
20.4700 4.0127 1.0000
20.4800 1.9906 1.0000
20.4900 2.0046 1.0000
20.5000 3.9704 1.0000
20.5100 1.9642 1.0000
20.5200 0.9840 1.0000
20.5300 1.0110 1.0000
20.5400 0.9756 1.0000
20.5500 0.9890 1.0000
20.5600 0.9995 1.0000
20.5700 2.0110 1.0000
20.5800 1.0050 1.0000
20.5900 2.0115 1.0000
20.6000 1.9986 1.0000
20.6100 2.0142 1.0000
20.6200 2.0124 1.0000
20.6300 0.0000 1.0000
20.6400 2.9950 1.0000
20.6500 0.0000 1.0000
20.6600 1.0282 1.0000
20.6700 1.0044 1.0000
20.6800 0.9782 1.0000
20.6900 3.0034 1.0000
20.7000 1.9828 1.0000
20.7100 0.9919 1.0000
20.7200 1.0178 1.0000
20.7300 1.9799 1.0000
20.7400 1.0078 1.0000
20.7500 1.9967 1.0000
20.7600 2.9840 1.0000
20.7700 2.0056 1.0000
20.7800 0.0000 1.0000
20.7900 0.9939 1.0000
20.8000 2.9785 1.0000
20.8100 0.0000 1.0000
20.8200 0.0000 1.0000
20.8300 1.9906 1.0000
20.8400 0.9890 1.0000
20.8500 1.9580 1.0000
20.8600 1.9906 1.0000
20.8700 0.9756 1.0000
20.8800 2.9751 1.0000
20.8900 1.9887 1.0000
20.9000 1.9797 1.0000
20.9100 1.9817 1.0000
20.9200 2.9588 1.0000
20.9300 0.9904 1.0000
20.9400 0.9977 1.0000
20.9500 0.0000 1.0000
20.9600 2.9871 1.0000
20.9700 1.9988 1.0000
20.9800 0.9899 1.0000
20.9900 0.0000 1.0000
21.0000 1.0121 1.0000
21.0100 0.0000 1.0000
21.0200 0.9746 1.0000
21.0300 0.9728 1.0000
21.0400 1.9858 1.0000
21.0500 2.9942 1.0000
21.0600 1.9945 1.0000
21.0700 1.0010 1.0000
21.0800 0.9658 1.0000
21.0900 1.0003 1.0000
21.1000 1.0002 1.0000
21.1100 1.9976 1.0000
21.1200 1.9775 1.0000
21.1300 0.9629 1.0000
21.1400 0.9629 1.0000
21.1500 3.9792 1.0000
21.1600 0.0000 1.0000
21.1700 0.9928 1.0000
21.1800 1.9766 1.0000
21.1900 0.9934 1.0000
21.2000 0.9880 1.0000
21.2100 0.0000 1.0000
21.2200 0.0000 1.0000
21.2300 2.0153 1.0000
21.2400 0.9952 1.0000
21.2500 3.9915 1.0000
21.2600 1.0019 1.0000
21.2700 0.9985 1.0000
21.2800 0.9629 1.0000
21.2900 3.9616 1.0000
21.3000 0.0000 1.0000
21.3100 3.9957 1.0000
21.3200 3.9591 1.0000
21.3300 0.9962 1.0000
21.3400 0.9892 1.0000
21.3500 0.9920 1.0000
21.3600 1.0008 1.0000
21.3700 0.9609 1.0000
21.3800 0.9861 1.0000
21.3900 0.9998 1.0000
21.4000 3.0135 1.0000
21.4100 0.0000 1.0000
21.4200 0.0000 1.0000
21.4300 2.0048 1.0000
21.4400 1.9939 1.0000
21.4500 0.9899 1.0000
21.4600 0.0000 1.0000
21.4700 1.0000 1.0000
21.4800 2.9774 1.0000
21.4900 0.0000 1.0000
21.5000 0.0000 1.0000
21.5100 0.9880 1.0000
21.5200 0.0000 1.0000
21.5300 1.9717 1.0000
21.5400 0.9787 1.0000
21.5500 0.9926 1.0000
21.5600 2.0100 1.0000
21.5700 4.0064 1.0000
21.5800 0.9819 1.0000
21.5900 2.9744 1.0000
21.6000 1.9895 1.0000
21.6100 0.0000 1.0000
21.6200 0.0000 1.0000
21.6300 1.0048 1.0000
21.6400 3.0068 1.0000
21.6500 0.0000 1.0000
21.6600 0.0000 1.0000
21.6700 0.9990 1.0000
21.6800 2.9685 1.0000
21.6900 0.0000 1.0000
21.7000 0.0000 1.0000
21.7100 1.9974 1.0000
21.7200 1.9902 1.0000
21.7300 1.9586 1.0000
21.7400 0.0000 1.0000
21.7500 0.9840 1.0000
21.7600 0.9906 1.0000
21.7700 2.9834 1.0000
21.7800 5.9688 1.0000
21.7900 0.0000 1.0000
21.8000 0.0000 1.0000
21.8100 0.9736 1.0000
21.8200 2.0098 1.0000
21.8300 1.0122 1.0000
21.8400 0.0000 1.0000
21.8500 1.0019 1.0000
21.8600 1.9934 1.0000
21.8700 0.9918 1.0000
21.8800 0.0000 1.0000
21.8900 1.0054 1.0000
21.9000 1.9940 1.0000
21.9100 3.0372 1.0000
21.9200 1.0044 1.0000
21.9300 0.9827 1.0000
21.9400 1.0127 1.0000
21.9500 0.0000 1.0000
21.9600 1.9857 1.0000
21.9700 2.0012 1.0000
21.9800 0.9932 1.0000
21.9900 0.9840 1.0000
22.0000 1.9772 1.0000
22.0100 1.0288 1.0000
22.0200 1.9833 1.0000
22.0300 1.0026 1.0000
22.0400 0.0000 1.0000
22.0500 0.9948 1.0000
22.0600 1.0018 1.0000
22.0700 0.9836 1.0000
22.0800 2.9661 1.0000
22.0900 1.9796 1.0000
22.1000 1.9726 1.0000
22.1100 2.9818 1.0000
22.1200 0.0000 1.0000
22.1300 2.9878 1.0000
22.1400 2.8994 1.0000
22.1500 3.0115 1.0000
22.1600 0.9737 1.0000
22.1700 0.0000 1.0000
22.1800 0.9839 1.0000
22.1900 0.0000 1.0000
22.2000 3.0114 1.0000
22.2100 5.0011 1.0000
22.2200 0.0000 1.0000
22.2300 0.0000 1.0000
22.2400 0.0000 1.0000
22.2500 2.0197 1.0000
22.2600 0.0000 1.0000
22.2700 0.9701 1.0000
22.2800 2.9696 1.0000
22.2900 0.0000 1.0000
22.3000 0.9701 1.0000
22.3100 0.0000 1.0000
22.3200 0.9969 1.0000
22.3300 1.9641 1.0000
22.3400 1.9791 1.0000
22.3500 1.9812 1.0000
22.3600 0.0000 1.0000
22.3700 0.9994 1.0000
22.3800 2.9901 1.0000
22.3900 2.0056 1.0000
22.4000 1.9643 1.0000
22.4100 4.0160 1.0000
22.4200 0.9922 1.0000
22.4300 2.9999 1.0000
22.4400 2.9390 1.0000
22.4500 1.9731 1.0000
22.4600 2.9721 1.0000
22.4700 0.0000 1.0000
22.4800 1.9793 1.0000
22.4900 0.9720 1.0000
22.5000 0.0000 1.0000
22.5100 2.0198 1.0000
22.5200 0.9792 1.0000
22.5300 2.9312 1.0000
22.5400 1.9883 1.0000
22.5500 0.9883 1.0000
22.5600 0.0000 1.0000
22.5700 0.9701 1.0000
22.5800 1.0116 1.0000
22.5900 1.9699 1.0000
22.6000 1.9871 1.0000
22.6100 1.9812 1.0000
22.6200 1.0277 1.0000
22.6300 2.9896 1.0000
22.6400 0.0000 1.0000
22.6500 0.9989 1.0000
22.6600 0.9875 1.0000
22.6700 0.0000 1.0000
22.6800 1.9994 1.0000
22.6900 2.0253 1.0000
22.7000 1.0038 1.0000
22.7100 0.9711 1.0000
22.7200 0.9983 1.0000
22.7300 0.0000 1.0000
22.7400 2.9603 1.0000
22.7500 2.0164 1.0000
22.7600 0.9865 1.0000
22.7700 0.9995 1.0000
22.7800 1.9671 1.0000
22.7900 0.9880 1.0000
22.8000 2.9867 1.0000
22.8100 2.0132 1.0000
22.8200 1.0066 1.0000
22.8300 2.9714 1.0000
22.8400 2.9834 1.0000
22.8500 1.0061 1.0000
22.8600 1.0101 1.0000
22.8700 1.9805 1.0000
22.8800 0.0000 1.0000
22.8900 2.0052 1.0000
22.9000 3.0215 1.0000
22.9100 3.9454 1.0000
22.9200 0.9829 1.0000
22.9300 0.0000 1.0000
22.9400 0.0000 1.0000
22.9500 1.9554 1.0000
22.9600 0.0000 1.0000
22.9700 1.0115 1.0000
22.9800 3.9259 1.0000
22.9900 0.9883 1.0000
23.0000 1.0122 1.0000
23.0100 1.0149 1.0000
23.0200 4.9730 1.0000
23.0300 1.0051 1.0000
23.0400 2.0144 1.0000
23.0500 1.0338 1.0000
23.0600 2.0192 1.0000
23.0700 1.9557 1.0000
23.0800 0.0000 1.0000
23.0900 2.9822 1.0000
23.1000 2.0097 1.0000
23.1100 2.0342 1.0000
23.1200 0.0000 1.0000
23.1300 1.0032 1.0000
23.1400 1.9514 1.0000
23.1500 2.1367 1.0000
23.1600 1.9981 1.0000
23.1700 2.9955 1.0000
23.1800 2.0017 1.0000
23.1900 3.0056 1.0000
23.2000 1.0020 1.0000
23.2100 4.9893 1.0000
23.2200 0.0000 1.0000
23.2300 1.0019 1.0000
23.2400 1.9469 1.0000
23.2500 0.9826 1.0000
23.2600 0.9868 1.0000
23.2700 0.9530 1.0000
23.2800 2.9687 1.0000
23.2900 2.9579 1.0000
23.3000 6.9897 1.0000
23.3100 3.9761 1.0000
23.3200 1.9873 1.0000
23.3300 0.0000 1.0000
23.3400 0.0000 1.0000
23.3500 0.0000 1.0000
23.3600 0.9905 1.0000
23.3700 2.0002 1.0000
23.3800 2.9783 1.0000
23.3900 0.0000 1.0000
23.4000 0.0000 1.0000
23.4100 1.0044 1.0000
23.4200 0.9824 1.0000
23.4300 1.0101 1.0000
23.4400 0.0000 1.0000
23.4500 0.9942 1.0000
23.4600 2.9745 1.0000
23.4700 1.0282 1.0000
23.4800 2.0280 1.0000
23.4900 1.9831 1.0000
23.5000 6.0470 1.0000
23.5100 1.0149 1.0000
23.5200 0.9885 1.0000
23.5300 5.0043 1.0000
23.5400 0.0000 1.0000
23.5500 0.9919 1.0000
23.5600 0.0000 1.0000
23.5700 3.0474 1.0000
23.5800 1.9838 1.0000
23.5900 1.9824 1.0000
23.6000 0.0000 1.0000
23.6100 2.9737 1.0000
23.6200 0.0000 1.0000
23.6300 2.9427 1.0000
23.6400 1.9974 1.0000
23.6500 3.0036 1.0000
23.6600 0.9887 1.0000
23.6700 0.0000 1.0000
23.6800 1.9500 1.0000
23.6900 3.9828 1.0000
23.7000 1.9865 1.0000
23.7100 0.9958 1.0000
23.7200 0.9912 1.0000
23.7300 0.9870 1.0000
23.7400 2.9834 1.0000
23.7500 3.9889 1.0000
23.7600 0.0000 1.0000
23.7700 1.0014 1.0000
23.7800 0.9860 1.0000
23.7900 0.9977 1.0000
23.8000 2.9788 1.0000
23.8100 3.0296 1.0000
23.8200 0.9829 1.0000
23.8300 3.9689 1.0000
23.8400 1.0002 1.0000
23.8500 0.0000 1.0000
23.8600 2.0338 1.0000
23.8700 1.9875 1.0000
23.8800 0.0000 1.0000
23.8900 1.0020 1.0000
23.9000 0.0000 1.0000
23.9100 0.0000 1.0000
23.9200 1.0053 1.0000
23.9300 0.0000 1.0000
23.9400 2.9615 1.0000
23.9500 1.9826 1.0000
23.9600 1.0071 1.0000
23.9700 0.0000 1.0000
23.9800 2.9474 1.0000
23.9900 1.9816 1.0000
24.0000 0.0000 1.0000
24.0100 0.9985 1.0000
24.0200 0.9953 1.0000
24.0300 0.0000 1.0000
24.0400 2.9891 1.0000
24.0500 1.9846 1.0000
24.0600 0.9829 1.0000
24.0700 1.9859 1.0000
24.0800 0.9989 1.0000
24.0900 0.0000 1.0000
24.1000 1.0194 1.0000
24.1100 1.0010 1.0000
24.1200 1.0109 1.0000
24.1300 0.0000 1.0000
24.1400 0.9886 1.0000
24.1500 2.9667 1.0000
24.1600 4.0013 1.0000
24.1700 2.9608 1.0000
24.1800 1.9777 1.0000
24.1900 3.9951 1.0000
24.2000 0.0000 1.0000
24.2100 0.9942 1.0000
24.2200 1.9958 1.0000
24.2300 0.9954 1.0000
24.2400 0.0000 1.0000
24.2500 0.9990 1.0000
24.2600 3.9851 1.0000
24.2700 2.0245 1.0000
24.2800 1.9708 1.0000
24.2900 0.0000 1.0000
24.3000 1.9693 1.0000
24.3100 1.9910 1.0000
24.3200 4.0017 1.0000
24.3300 0.0000 1.0000
24.3400 0.0000 1.0000
24.3500 2.9841 1.0000
24.3600 1.0027 1.0000
24.3700 0.0000 1.0000
24.3800 4.0206 1.0000
24.3900 1.9805 1.0000
24.4000 1.9860 1.0000
24.4100 0.0000 1.0000
24.4200 0.9932 1.0000
24.4300 1.9772 1.0000
24.4400 1.0018 1.0000
24.4500 1.9842 1.0000
24.4600 0.9530 1.0000
24.4700 4.0013 1.0000
24.4800 3.9427 1.0000
24.4900 1.9946 1.0000
24.5000 1.9906 1.0000
24.5100 0.9825 1.0000
24.5200 2.9701 1.0000
24.5300 0.0000 1.0000
24.5400 4.0178 1.0000
24.5500 0.9942 1.0000
24.5600 2.9779 1.0000
24.5700 0.0000 1.0000
24.5800 2.9277 1.0000
24.5900 0.9755 1.0000
24.6000 0.0000 1.0000
24.6100 2.0185 1.0000
24.6200 1.9778 1.0000
24.6300 1.0136 1.0000
24.6400 0.9783 1.0000
24.6500 1.9827 1.0000
24.6600 3.0090 1.0000
24.6700 2.9572 1.0000
24.6800 0.9755 1.0000
24.6900 1.0149 1.0000
24.7000 1.9844 1.0000
24.7100 1.9926 1.0000
24.7200 1.9625 1.0000
24.7300 0.9948 1.0000
24.7400 0.0000 1.0000
24.7500 0.0000 1.0000
24.7600 1.9917 1.0000
24.7700 0.0000 1.0000
24.7800 3.0241 1.0000
24.7900 0.9609 1.0000
24.8000 0.9609 1.0000
24.8100 0.9720 1.0000
24.8200 2.9974 1.0000
24.8300 1.9713 1.0000
24.8400 0.0000 1.0000
24.8500 0.0000 1.0000
24.8600 0.0000 1.0000
24.8700 0.0000 1.0000
24.8800 0.9947 1.0000
24.8900 1.0296 1.0000
24.9000 3.0228 1.0000
24.9100 0.0000 1.0000
24.9200 1.9833 1.0000
24.9300 0.0000 1.0000
24.9400 0.0000 1.0000
24.9500 4.0031 1.0000
24.9600 1.9809 1.0000
24.9700 1.9879 1.0000
24.9800 1.9659 1.0000
24.9900 0.9893 1.0000
25.0000 1.9400 1.0000
25.0100 1.9822 1.0000
25.0200 0.9892 1.0000
25.0300 1.0028 1.0000
25.0400 0.9675 1.0000
25.0500 0.9932 1.0000
25.0600 1.9951 1.0000
25.0700 4.0165 1.0000
25.0800 1.0011 1.0000
25.0900 1.9847 1.0000
25.1000 0.9941 1.0000
25.1100 2.9836 1.0000
25.1200 2.9676 1.0000
25.1300 0.0000 1.0000
25.1400 0.0000 1.0000
25.1500 0.9979 1.0000
25.1600 1.0049 1.0000
25.1700 2.9983 1.0000
25.1800 0.0000 1.0000
25.1900 0.0000 1.0000
25.2000 0.0000 1.0000
25.2100 3.9794 1.0000
25.2200 1.9987 1.0000
25.2300 2.0094 1.0000
25.2400 2.9898 1.0000
25.2500 1.0009 1.0000
25.2600 0.9969 1.0000
25.2700 1.9982 1.0000
25.2800 0.9843 1.0000
25.2900 2.9587 1.0000
25.3000 0.9831 1.0000
25.3100 1.0038 1.0000
25.3200 0.9984 1.0000
25.3300 2.0114 1.0000
25.3400 0.0000 1.0000
25.3500 0.0000 1.0000
25.3600 0.0000 1.0000
25.3700 1.9966 1.0000
25.3800 0.9966 1.0000
25.3900 1.9809 1.0000
25.4000 2.0029 1.0000
25.4100 2.9875 1.0000
25.4200 2.9744 1.0000
25.4300 3.9330 1.0000
25.4400 0.9979 1.0000
25.4500 2.9695 1.0000
25.4600 4.9765 1.0000
25.4700 0.9781 1.0000
25.4800 2.9765 1.0000
25.4900 0.0000 1.0000
25.5000 1.9687 1.0000
25.5100 1.0149 1.0000
25.5200 0.0000 1.0000
25.5300 1.0121 1.0000
25.5400 6.9212 1.0000
25.5500 3.9717 1.0000
25.5600 1.0222 1.0000
25.5700 3.9914 1.0000
25.5800 0.0000 1.0000
25.5900 0.9802 1.0000
25.6000 0.0000 1.0000
25.6100 2.9979 1.0000
25.6200 1.0020 1.0000
25.6300 0.0000 1.0000
25.6400 0.9964 1.0000
25.6500 3.9951 1.0000
25.6600 1.9700 1.0000
25.6700 0.9940 1.0000
25.6800 0.9844 1.0000
25.6900 0.0000 1.0000
25.7000 0.0000 1.0000
25.7100 0.0000 1.0000
25.7200 0.0000 1.0000
25.7300 1.9797 1.0000
25.7400 0.0000 1.0000
25.7500 0.9977 1.0000
25.7600 2.0190 1.0000
25.7700 2.0074 1.0000
25.7800 3.0661 1.0000
25.7900 1.9583 1.0000
25.8000 2.0019 1.0000
25.8100 0.0000 1.0000
25.8200 1.9903 1.0000
25.8300 2.0009 1.0000
25.8400 1.9806 1.0000
25.8500 2.9748 1.0000
25.8600 1.9948 1.0000
25.8700 0.9893 1.0000
25.8800 0.0000 1.0000
25.8900 1.0149 1.0000
25.9000 0.9530 1.0000
25.9100 1.9939 1.0000
25.9200 0.0000 1.0000
25.9300 0.0000 1.0000
25.9400 1.0175 1.0000
25.9500 1.9837 1.0000
25.9600 1.0044 1.0000
25.9700 2.9900 1.0000
25.9800 0.9955 1.0000
25.9900 1.0303 1.0000
26.0000 0.0000 1.0000
26.0100 1.9952 1.0000
26.0200 0.9995 1.0000
26.0300 0.0000 1.0000
26.0400 2.0063 1.0000
26.0500 1.9986 1.0000
26.0600 0.0000 1.0000
26.0700 1.9549 1.0000
26.0800 0.9968 1.0000
26.0900 1.9787 1.0000
26.1000 0.0000 1.0000
26.1100 0.0000 1.0000
26.1200 1.9987 1.0000
26.1300 4.9332 1.0000
26.1400 1.0149 1.0000
26.1500 3.9364 1.0000
26.1600 0.0000 1.0000
26.1700 1.0100 1.0000
26.1800 0.9824 1.0000
26.1900 2.1289 1.0000
26.2000 1.9887 1.0000
26.2100 0.0000 1.0000
26.2200 1.9586 1.0000
26.2300 0.0000 1.0000
26.2400 1.9755 1.0000
26.2500 0.0000 1.0000
26.2600 1.9741 1.0000
26.2700 0.0000 1.0000
26.2800 0.9883 1.0000
26.2900 0.9894 1.0000
26.3000 0.0000 1.0000
26.3100 3.9650 1.0000
26.3200 1.0054 1.0000
26.3300 0.9980 1.0000
26.3400 1.9899 1.0000
26.3500 0.9939 1.0000
26.3600 1.9612 1.0000
26.3700 1.9560 1.0000
26.3800 0.0000 1.0000
26.3900 0.9887 1.0000
26.4000 0.9983 1.0000
26.4100 1.9754 1.0000
26.4200 1.9892 1.0000
26.4300 0.0000 1.0000
26.4400 0.0000 1.0000
26.4500 2.0120 1.0000
26.4600 1.9852 1.0000
26.4700 1.9653 1.0000
26.4800 1.0123 1.0000
26.4900 0.0000 1.0000
26.5000 2.9612 1.0000
26.5100 0.0000 1.0000
26.5200 2.0335 1.0000
26.5300 1.0098 1.0000
26.5400 2.1366 1.0000
26.5500 0.9912 1.0000
26.5600 0.0000 1.0000
26.5700 1.9827 1.0000
26.5800 2.0043 1.0000
26.5900 0.9941 1.0000
26.6000 0.9989 1.0000
26.6100 2.0303 1.0000
26.6200 1.0085 1.0000
26.6300 0.0000 1.0000
26.6400 0.9885 1.0000
26.6500 2.0822 1.0000
26.6600 0.9942 1.0000
26.6700 0.0000 1.0000
26.6800 0.9972 1.0000
26.6900 1.9843 1.0000
26.7000 1.9915 1.0000
26.7100 0.9997 1.0000
26.7200 1.0222 1.0000
26.7300 0.0000 1.0000
26.7400 1.9886 1.0000
26.7500 2.9594 1.0000
26.7600 2.0312 1.0000
26.7700 1.9974 1.0000
26.7800 0.0000 1.0000
26.7900 1.0208 1.0000
26.8000 1.0053 1.0000
26.8100 0.9711 1.0000
26.8200 0.0000 1.0000
26.8300 3.9505 1.0000
26.8400 0.9767 1.0000
26.8500 1.9961 1.0000
26.8600 2.0075 1.0000
26.8700 3.0149 1.0000
26.8800 0.9918 1.0000
26.8900 1.0250 1.0000
26.9000 0.9975 1.0000
26.9100 1.9629 1.0000
26.9200 1.9645 1.0000
26.9300 1.9888 1.0000
26.9400 0.0000 1.0000
26.9500 1.9586 1.0000
26.9600 2.0022 1.0000
26.9700 1.9991 1.0000
26.9800 1.9953 1.0000
26.9900 1.9949 1.0000
27.0000 3.0310 1.0000
27.0100 1.0156 1.0000
27.0200 2.0046 1.0000
27.0300 0.9890 1.0000
27.0400 1.9723 1.0000
27.0500 1.9862 1.0000
27.0600 0.9996 1.0000
27.0700 0.9979 1.0000
27.0800 1.9688 1.0000
27.0900 0.9853 1.0000
27.1000 1.9746 1.0000
27.1100 1.0010 1.0000
27.1200 2.0078 1.0000
27.1300 0.0000 1.0000
27.1400 1.0032 1.0000
27.1500 0.0000 1.0000
27.1600 0.9837 1.0000
27.1700 0.0000 1.0000
27.1800 0.9918 1.0000
27.1900 1.9817 1.0000
27.2000 1.9877 1.0000
27.2100 2.0047 1.0000
27.2200 0.0000 1.0000
27.2300 3.9391 1.0000
27.2400 1.0123 1.0000
27.2500 0.0000 1.0000
27.2600 4.9817 1.0000
27.2700 1.9870 1.0000
27.2800 2.9823 1.0000
27.2900 0.0000 1.0000
27.3000 4.9690 1.0000
27.3100 1.0049 1.0000
27.3200 1.9757 1.0000
27.3300 0.9921 1.0000
27.3400 2.9739 1.0000
27.3500 0.0000 1.0000
27.3600 0.9978 1.0000
27.3700 2.0029 1.0000
27.3800 1.9745 1.0000
27.3900 1.9630 1.0000
27.4000 2.9697 1.0000
27.4100 2.9640 1.0000
27.4200 1.9979 1.0000
27.4300 2.9962 1.0000
27.4400 1.0039 1.0000
27.4500 0.0000 1.0000
27.4600 0.9989 1.0000
27.4700 0.9948 1.0000
27.4800 0.0000 1.0000
27.4900 2.0327 1.0000
27.5000 0.9971 1.0000
27.5100 0.9839 1.0000
27.5200 2.9555 1.0000
27.5300 2.0146 1.0000
27.5400 0.9767 1.0000
27.5500 0.0000 1.0000
27.5600 0.9899 1.0000
27.5700 3.0017 1.0000
27.5800 1.9986 1.0000
27.5900 0.9968 1.0000
27.6000 1.9922 1.0000
27.6100 0.0000 1.0000
27.6200 4.9918 1.0000
27.6300 1.0194 1.0000
27.6400 0.0000 1.0000
27.6500 2.9693 1.0000
27.6600 1.0092 1.0000
27.6700 0.9720 1.0000
27.6800 0.0000 1.0000
27.6900 2.9940 1.0000
27.7000 5.9648 1.0000
27.7100 0.9899 1.0000
27.7200 0.0000 1.0000
27.7300 0.9957 1.0000
27.7400 0.9958 1.0000
27.7500 1.9877 1.0000
27.7600 2.9984 1.0000
27.7700 0.9943 1.0000
27.7800 0.0000 1.0000
27.7900 1.9644 1.0000
27.8000 0.9991 1.0000
27.8100 2.0099 1.0000
27.8200 3.0015 1.0000
27.8300 1.9984 1.0000
27.8400 1.9957 1.0000
27.8500 2.0238 1.0000
27.8600 1.0048 1.0000
27.8700 2.9786 1.0000
27.8800 2.9747 1.0000
27.8900 0.0000 1.0000
27.9000 1.9685 1.0000
27.9100 3.9779 1.0000
27.9200 0.0000 1.0000
27.9300 2.0368 1.0000
27.9400 3.9998 1.0000
27.9500 0.9893 1.0000
27.9600 1.9656 1.0000
27.9700 5.9841 1.0000
27.9800 2.0163 1.0000
27.9900 2.9873 1.0000
28.0000 1.9876 1.0000
28.0100 1.0010 1.0000
28.0200 2.9919 1.0000
28.0300 2.0004 1.0000
28.0400 1.0022 1.0000
28.0500 2.9681 1.0000
28.0600 1.9962 1.0000
28.0700 1.9749 1.0000
28.0800 1.9995 1.0000
28.0900 0.0000 1.0000
28.1000 3.0280 1.0000
28.1100 0.9822 1.0000
28.1200 2.9962 1.0000
28.1300 0.9776 1.0000
28.1400 3.9361 1.0000
28.1500 2.0020 1.0000
28.1600 1.9939 1.0000
28.1700 3.9872 1.0000
28.1800 2.9745 1.0000
28.1900 1.9698 1.0000
28.2000 1.9520 1.0000
28.2100 2.9921 1.0000
28.2200 4.0268 1.0000
28.2300 1.1415 1.0000
28.2400 2.9705 1.0000
28.2500 5.9630 1.0000
28.2600 4.9017 1.0000
28.2700 1.0175 1.0000
28.2800 0.9947 1.0000
28.2900 1.0009 1.0000
28.3000 1.0014 1.0000
28.3100 0.9736 1.0000
28.3200 0.0000 1.0000
28.3300 0.9807 1.0000
28.3400 0.9803 1.0000
28.3500 2.0028 1.0000
28.3600 0.0000 1.0000
28.3700 0.0000 1.0000
28.3800 0.0000 1.0000
28.3900 0.0000 1.0000
28.4000 4.0189 1.0000
28.4100 0.9879 1.0000
28.4200 2.9361 1.0000
28.4300 0.0000 1.0000
28.4400 1.9700 1.0000
28.4500 1.9895 1.0000
28.4600 1.0053 1.0000
28.4700 1.0005 1.0000
28.4800 0.0000 1.0000
28.4900 0.9958 1.0000
28.5000 1.0199 1.0000
28.5100 1.9830 1.0000
28.5200 1.0122 1.0000
28.5300 1.9727 1.0000
28.5400 3.9811 1.0000
28.5500 3.9893 1.0000
28.5600 1.0308 1.0000
28.5700 1.9918 1.0000
28.5800 0.9912 1.0000
28.5900 1.9934 1.0000
28.6000 1.0250 1.0000
28.6100 1.9830 1.0000
28.6200 0.9933 1.0000
28.6300 1.0019 1.0000
28.6400 1.0015 1.0000
28.6500 0.9932 1.0000
28.6600 1.9719 1.0000
28.6700 0.0000 1.0000
28.6800 4.9806 1.0000
28.6900 2.0123 1.0000
28.7000 1.0110 1.0000
28.7100 1.9942 1.0000
28.7200 1.9800 1.0000
28.7300 3.9762 1.0000
28.7400 0.9890 1.0000
28.7500 0.9983 1.0000
28.7600 0.9890 1.0000
28.7700 2.0084 1.0000
28.7800 3.9763 1.0000
28.7900 3.0089 1.0000
28.8000 0.0000 1.0000
28.8100 2.9565 1.0000
28.8200 0.0000 1.0000
28.8300 0.9855 1.0000
28.8400 1.9811 1.0000
28.8500 0.9948 1.0000
28.8600 2.9945 1.0000
28.8700 0.9883 1.0000
28.8800 1.9448 1.0000
28.8900 3.0087 1.0000
28.9000 0.0000 1.0000
28.9100 1.9680 1.0000
28.9200 1.0036 1.0000
28.9300 0.0000 1.0000
28.9400 0.0000 1.0000
28.9500 2.0400 1.0000
28.9600 2.9675 1.0000
28.9700 0.9880 1.0000
28.9800 0.0000 1.0000
28.9900 3.0087 1.0000
29.0000 1.0059 1.0000
29.0100 2.9993 1.0000
29.0200 0.9816 1.0000
29.0300 0.0000 1.0000
29.0400 1.9664 1.0000
29.0500 3.0084 1.0000
29.0600 3.9537 1.0000
29.0700 1.9795 1.0000
29.0800 3.9767 1.0000
29.0900 2.9985 1.0000
29.1000 1.9675 1.0000
29.1100 0.0000 1.0000
29.1200 0.0000 1.0000
29.1300 1.9687 1.0000
29.1400 2.1702 1.0000
29.1500 3.0262 1.0000
29.1600 4.0299 1.0000
29.1700 3.0160 1.0000
29.1800 2.0158 1.0000
29.1900 1.9952 1.0000
29.2000 0.0000 1.0000
29.2100 1.0102 1.0000
29.2200 0.0000 1.0000
29.2300 0.9774 1.0000
29.2400 3.9517 1.0000
29.2500 0.0000 1.0000
29.2600 1.9705 1.0000
29.2700 2.9739 1.0000
29.2800 1.0092 1.0000
29.2900 0.0000 1.0000
29.3000 0.9701 1.0000
29.3100 1.9705 1.0000
29.3200 1.9684 1.0000
29.3300 0.9935 1.0000
29.3400 1.0092 1.0000
29.3500 2.0132 1.0000
29.3600 0.0000 1.0000
29.3700 5.9864 1.0000
29.3800 1.0253 1.0000
29.3900 1.0037 1.0000
29.4000 3.9994 1.0000
29.4100 1.9667 1.0000
29.4200 0.9769 1.0000
29.4300 4.0183 1.0000
29.4400 2.9511 1.0000
29.4500 0.9983 1.0000
29.4600 0.0000 1.0000
29.4700 0.9530 1.0000
29.4800 3.9977 1.0000
29.4900 3.0114 1.0000
29.5000 4.0088 1.0000
29.5100 1.9795 1.0000
29.5200 3.9291 1.0000
29.5300 1.0030 1.0000
29.5400 1.9921 1.0000
29.5500 0.9918 1.0000
29.5600 3.0041 1.0000
29.5700 1.0106 1.0000
29.5800 2.0183 1.0000
29.5900 0.9807 1.0000
29.6000 2.0294 1.0000
29.6100 4.9552 1.0000
29.6200 2.9567 1.0000
29.6300 4.9601 1.0000
29.6400 1.9834 1.0000
29.6500 3.9749 1.0000
29.6600 1.9525 1.0000
29.6700 0.9910 1.0000
29.6800 4.0081 1.0000
29.6900 3.0066 1.0000
29.7000 3.0204 1.0000
29.7100 1.0019 1.0000
29.7200 1.9509 1.0000
29.7300 1.9844 1.0000
29.7400 3.0199 1.0000
29.7500 1.9929 1.0000
29.7600 2.0496 1.0000
29.7700 1.9789 1.0000
29.7800 0.9932 1.0000
29.7900 6.9605 1.0000
29.8000 2.9759 1.0000
29.8100 1.9999 1.0000
29.8200 2.9663 1.0000
29.8300 2.9947 1.0000
29.8400 2.9730 1.0000
29.8500 3.9967 1.0000
29.8600 5.9641 1.0000
29.8700 2.9887 1.0000
29.8800 1.9818 1.0000
29.8900 0.0000 1.0000
29.9000 5.9411 1.0000
29.9100 0.9929 1.0000
29.9200 2.9922 1.0000
29.9300 1.9609 1.0000
29.9400 0.9826 1.0000
29.9500 3.9458 1.0000
29.9600 0.9895 1.0000
29.9700 2.0067 1.0000
29.9800 2.9741 1.0000
29.9900 0.0000 1.0000
30.0000 3.9590 1.0000
30.0100 3.9819 1.0000
30.0200 2.9858 1.0000
30.0300 0.0000 1.0000
30.0400 0.0000 1.0000
30.0500 1.9955 1.0000
30.0600 3.9716 1.0000
30.0700 1.9733 1.0000
30.0800 1.9775 1.0000
30.0900 1.9522 1.0000
30.1000 3.9571 1.0000
30.1100 0.0000 1.0000
30.1200 6.9976 1.0000
30.1300 5.0108 1.0000
30.1400 3.9931 1.0000
30.1500 5.9836 1.0000
30.1600 2.9799 1.0000
30.1700 1.9972 1.0000
30.1800 4.0238 1.0000
30.1900 3.9837 1.0000
30.2000 2.0001 1.0000
30.2100 3.0036 1.0000
30.2200 7.9316 1.0000
30.2300 1.9902 1.0000
30.2400 1.9510 1.0000
30.2500 1.9907 1.0000
30.2600 4.9443 1.0000
30.2700 3.0432 1.0000
30.2800 1.9895 1.0000
30.2900 0.0000 1.0000
30.3000 2.0285 1.0000
30.3100 4.0118 1.0000
30.3200 3.0186 1.0000
30.3300 4.9574 1.0000
30.3400 3.0207 1.0000
30.3500 0.9829 1.0000
30.3600 1.0060 1.0000
30.3700 7.9513 1.0000
30.3800 4.0213 1.0000
30.3900 5.0026 1.0000
30.4000 1.9875 1.0000
30.4100 5.9417 1.0000
30.4200 2.9640 1.0000
30.4300 4.9209 1.0000
30.4400 8.9622 1.0000
30.4500 4.9960 1.0000
30.4600 2.9533 1.0000
30.4700 3.9784 1.0000
30.4800 1.0015 1.0000
30.4900 1.9920 1.0000
30.5000 8.0030 1.0000
30.5100 1.9819 1.0000
30.5200 6.0131 1.0000
30.5300 2.9799 1.0000
30.5400 7.9967 1.0000
30.5500 7.0437 1.0000
30.5600 3.9749 1.0000
30.5700 2.9782 1.0000
30.5800 8.9720 1.0000
30.5900 2.0128 1.0000
30.6000 6.9612 1.0000
30.6100 3.0055 1.0000
30.6200 6.9167 1.0000
30.6300 7.9466 1.0000
30.6400 4.8986 1.0000
30.6500 7.2418 1.0000
30.6600 9.0269 1.0000
30.6700 3.9733 1.0000
30.6800 3.9598 1.0000
30.6900 9.9347 1.0000
30.7000 10.9557 1.0000
30.7100 8.9831 1.0000
30.7200 3.0061 1.0000
30.7300 7.9842 1.0000
30.7400 8.9834 1.0000
30.7500 6.9674 1.0000
30.7600 5.9806 1.0000
30.7700 9.0042 1.0000
30.7800 9.0270 1.0000
30.7900 6.9695 1.0000
30.8000 11.2872 1.0000
30.8100 10.0056 1.0000
30.8200 12.9961 1.0000
30.8300 9.9739 1.0000
30.8400 11.0042 1.0000
30.8500 20.1351 1.0000
30.8600 9.9578 1.0000
30.8700 9.9386 1.0000
30.8800 10.1055 1.0000
30.8900 16.9141 1.0000
30.9000 8.9690 1.0000
30.9100 10.9169 1.0000
30.9200 16.0165 1.0000
30.9300 12.8619 1.0000
30.9400 14.0679 1.0000
30.9500 20.2729 1.0000
30.9600 13.8787 1.0000
30.9700 6.9506 1.0000
30.9800 18.0043 1.0000
30.9900 12.0165 1.0000
31.0000 18.9709 1.0000
31.0100 13.0656 1.0000
31.0200 15.9444 1.0000
31.0300 24.1252 1.0000
31.0400 16.9388 1.0000
31.0500 18.8966 1.0000
31.0600 23.8594 1.0000
31.0700 14.9495 1.0000
31.0800 7.0579 1.0000
31.0900 13.9515 1.0000
31.1000 16.1685 1.0000
31.1100 22.2531 1.0000
31.1200 19.9419 1.0000
31.1300 25.7426 1.0000
31.1400 20.9119 1.0000
31.1500 24.0197 1.0000
31.1600 20.3407 1.0000
31.1700 23.9770 1.0000
31.1800 27.9222 1.0000
31.1900 20.9473 1.0000
31.2000 27.7579 1.0000
31.2100 33.7876 1.0000
31.2200 34.0563 1.0000
31.2300 28.1384 1.0000
31.2400 29.9199 1.0000
31.2500 45.0474 1.0000
31.2600 25.8568 1.0000
31.2700 42.0841 1.0000
31.2800 30.9977 1.0000
31.2900 33.9256 1.0000
31.3000 34.9033 1.0000
31.3100 31.8050 1.0000
31.3200 47.2800 1.0000
31.3300 40.2004 1.0000
31.3400 39.9742 1.0000
31.3500 42.0549 1.0000
31.3600 52.7188 1.0000
31.3700 42.7780 1.0000
31.3800 44.9016 1.0000
31.3900 52.1492 1.0000
31.4000 54.2075 1.0000
31.4100 67.7889 1.0000
31.4200 50.7609 1.0000
31.4300 70.8125 1.0000
31.4400 53.2610 1.0000
31.4500 72.1651 1.0000
31.4600 80.7944 1.0000
31.4700 87.8428 1.0000
31.4800 73.6901 1.0000
31.4900 87.6640 1.0000
31.5000 103.6201 1.0000
31.5100 113.8410 1.0000
31.5200 123.2007 1.0000
31.5300 164.3776 1.0000
31.5400 152.5670 1.0000
31.5500 191.7548 1.0000
31.5600 205.3432 1.0000
31.5700 214.1784 1.0000
31.5800 309.3795 1.0000
31.5900 420.3004 1.0000
31.6000 533.2079 1.0000
31.6100 751.0198 1.0000
31.6200 1102.7593 1.0000
31.6300 1680.9264 1.0000
31.6400 2591.1189 1.0000
31.6500 4068.0823 1.0000
31.6600 6276.9175 1.0000
31.6700 11061.2773 1.0000
31.6800 18664.5410 1.0000
31.6900 46306.2852 1.0000
31.7000 71919.4297 1.0000
31.7100 75579.6563 1.0000
31.7200 73557.7578 1.0000
31.7300 67969.5547 1.0000
31.7400 60228.3516 1.0000
31.7500 49898.5430 1.0000
31.7600 41842.2227 1.0000
31.7700 31898.9785 1.0000
31.7800 22476.2051 1.0000
31.7900 15739.2422 1.0000
31.8000 6904.6357 1.0000
31.8100 2593.0461 1.0000
31.8200 907.9131 1.0000
31.8300 413.7486 1.0000
31.8400 308.3850 1.0000
31.8500 210.6049 1.0000
31.8600 134.9010 1.0000
31.8700 143.6715 1.0000
31.8800 122.1579 1.0000
31.8900 97.3564 1.0000
31.9000 78.7648 1.0000
31.9100 68.0931 1.0000
31.9200 75.3122 1.0000
31.9300 61.0928 1.0000
31.9400 44.9840 1.0000
31.9500 42.1983 1.0000
31.9600 58.4244 1.0000
31.9700 50.0257 1.0000
31.9800 36.9661 1.0000
31.9900 42.1196 1.0000
32.0000 19.8203 1.0000
32.0100 35.3973 1.0000
32.0200 32.2327 1.0000
32.0300 27.2417 1.0000
32.0400 31.0195 1.0000
32.0500 20.1929 1.0000
32.0600 20.8892 1.0000
32.0700 22.1633 1.0000
32.0800 17.9645 1.0000
32.0900 25.2670 1.0000
32.1000 16.9121 1.0000
32.1100 20.9072 1.0000
32.1200 19.0116 1.0000
32.1300 17.2736 1.0000
32.1400 22.8808 1.0000
32.1500 5.9702 1.0000
32.1600 17.2741 1.0000
32.1700 10.0702 1.0000
32.1800 13.0263 1.0000
32.1900 10.9926 1.0000
32.2000 12.9557 1.0000
32.2100 10.9717 1.0000
32.2200 12.9833 1.0000
32.2300 13.9359 1.0000
32.2400 7.0601 1.0000
32.2500 11.1514 1.0000
32.2600 9.9367 1.0000
32.2700 8.9668 1.0000
32.2800 10.8867 1.0000
32.2900 12.2999 1.0000
32.3000 11.9321 1.0000
32.3100 13.9715 1.0000
32.3200 5.9553 1.0000
32.3300 7.0151 1.0000
32.3400 7.9557 1.0000
32.3500 7.0374 1.0000
32.3600 11.8714 1.0000
32.3700 4.1172 1.0000
32.3800 6.0149 1.0000
32.3900 12.0321 1.0000
32.4000 10.9669 1.0000
32.4100 6.8988 1.0000
32.4200 3.9712 1.0000
32.4300 13.9171 1.0000
32.4400 3.9816 1.0000
32.4500 3.0054 1.0000
32.4600 9.9369 1.0000
32.4700 10.4086 1.0000
32.4800 6.9879 1.0000
32.4900 7.9290 1.0000
32.5000 9.0757 1.0000
32.5100 5.0281 1.0000
32.5200 7.9913 1.0000
32.5300 5.9275 1.0000
32.5400 2.9839 1.0000
32.5500 3.9682 1.0000
32.5600 5.9609 1.0000
32.5700 3.9302 1.0000
32.5800 8.1210 1.0000
32.5900 7.9634 1.0000
32.6000 8.9499 1.0000
32.6100 7.9906 1.0000
32.6200 4.9645 1.0000
32.6300 4.9923 1.0000
32.6400 5.9721 1.0000
32.6500 4.0278 1.0000
32.6600 5.9821 1.0000
32.6700 2.9519 1.0000
32.6800 3.9959 1.0000
32.6900 1.9657 1.0000
32.7000 3.9764 1.0000
32.7100 5.9235 1.0000
32.7200 5.0052 1.0000
32.7300 3.0107 1.0000
32.7400 4.9707 1.0000
32.7500 9.9529 1.0000
32.7600 2.9497 1.0000
32.7700 4.9566 1.0000
32.7800 6.9427 1.0000
32.7900 9.9558 1.0000
32.8000 2.9947 1.0000
32.8100 4.0120 1.0000
32.8200 1.0055 1.0000
32.8300 4.9819 1.0000
32.8400 7.0177 1.0000
32.8500 2.9767 1.0000
32.8600 4.9965 1.0000
32.8700 1.9852 1.0000
32.8800 4.9655 1.0000
32.8900 1.0085 1.0000
32.9000 3.9723 1.0000
32.9100 1.9853 1.0000
32.9200 2.9950 1.0000
32.9300 2.9893 1.0000
32.9400 2.9577 1.0000
32.9500 5.9836 1.0000
32.9600 8.0303 1.0000
32.9700 3.9296 1.0000
32.9800 2.0137 1.0000
32.9900 2.9800 1.0000
33.0000 4.9683 1.0000
33.0100 3.0025 1.0000
33.0200 0.9969 1.0000
33.0300 4.0091 1.0000
33.0400 5.9927 1.0000
33.0500 4.2971 1.0000
33.0600 3.9802 1.0000
33.0700 1.9964 1.0000
33.0800 1.9608 1.0000
33.0900 7.9162 1.0000
33.1000 4.9232 1.0000
33.1100 6.9594 1.0000
33.1200 3.0118 1.0000
33.1300 7.0488 1.0000
33.1400 4.9852 1.0000
33.1500 2.9960 1.0000
33.1600 3.9520 1.0000
33.1700 3.9323 1.0000
33.1800 5.9471 1.0000
33.1900 3.9609 1.0000
33.2000 4.9514 1.0000
33.2100 3.0133 1.0000
33.2200 3.9931 1.0000
33.2300 1.9898 1.0000
33.2400 1.0044 1.0000
33.2500 0.9930 1.0000
33.2600 6.0077 1.0000
33.2700 1.9953 1.0000
33.2800 2.0127 1.0000
33.2900 2.9647 1.0000
33.3000 1.0039 1.0000
33.3100 2.9690 1.0000
33.3200 1.9820 1.0000
33.3300 0.9920 1.0000
33.3400 1.0005 1.0000
33.3500 2.9577 1.0000
33.3600 3.9629 1.0000
33.3700 3.9582 1.0000
33.3800 5.9472 1.0000
33.3900 2.0064 1.0000
33.4000 2.0170 1.0000
33.4100 3.9767 1.0000
33.4200 3.0059 1.0000
33.4300 0.0000 1.0000
33.4400 0.0000 1.0000
33.4500 5.9975 1.0000
33.4600 1.9613 1.0000
33.4700 3.9832 1.0000
33.4800 3.0125 1.0000
33.4900 5.0138 1.0000
33.5000 2.9775 1.0000
33.5100 4.0345 1.0000
33.5200 5.0203 1.0000
33.5300 3.0155 1.0000
33.5400 3.0042 1.0000
33.5500 2.9928 1.0000
33.5600 2.0034 1.0000
33.5700 2.0256 1.0000
33.5800 2.9942 1.0000
33.5900 5.0376 1.0000
33.6000 5.9551 1.0000
33.6100 3.9632 1.0000
33.6200 0.0000 1.0000
33.6300 1.9884 1.0000
33.6400 2.9748 1.0000
33.6500 2.9582 1.0000
33.6600 4.9991 1.0000
33.6700 5.9665 1.0000
33.6800 4.9348 1.0000
33.6900 0.9829 1.0000
33.7000 1.9665 1.0000
33.7100 3.9679 1.0000
33.7200 2.9814 1.0000
33.7300 0.0000 1.0000
33.7400 2.0090 1.0000
33.7500 6.9489 1.0000
33.7600 1.9689 1.0000
33.7700 2.0050 1.0000
33.7800 1.9848 1.0000
33.7900 4.0384 1.0000
33.8000 0.9930 1.0000
33.8100 4.9363 1.0000
33.8200 2.0228 1.0000
33.8300 0.0000 1.0000
33.8400 0.9787 1.0000
33.8500 1.0011 1.0000
33.8600 3.9971 1.0000
33.8700 3.0018 1.0000
33.8800 0.9870 1.0000
33.8900 8.9372 1.0000
33.9000 0.0000 1.0000
33.9100 0.9902 1.0000
33.9200 2.9912 1.0000
33.9300 3.9508 1.0000
33.9400 3.9563 1.0000
33.9500 1.9539 1.0000
33.9600 0.9893 1.0000
33.9700 3.9843 1.0000
33.9800 3.0063 1.0000
33.9900 2.0059 1.0000
34.0000 4.0350 1.0000
34.0100 0.9933 1.0000
34.0200 0.9865 1.0000
34.0300 1.0309 1.0000
34.0400 2.9979 1.0000
34.0500 3.0079 1.0000
34.0600 3.0001 1.0000
34.0700 2.0449 1.0000
34.0800 2.0312 1.0000
34.0900 0.9898 1.0000
34.1000 2.9736 1.0000
34.1100 2.9606 1.0000
34.1200 2.0029 1.0000
34.1300 1.9929 1.0000
34.1400 4.0162 1.0000
34.1500 3.9369 1.0000
34.1600 4.9900 1.0000
34.1700 1.9984 1.0000
34.1800 2.9898 1.0000
34.1900 1.0264 1.0000
34.2000 1.0029 1.0000
34.2100 2.9703 1.0000
34.2200 3.9724 1.0000
34.2300 2.0008 1.0000
34.2400 4.2859 1.0000
34.2500 5.9401 1.0000
34.2600 2.0419 1.0000
34.2700 1.0253 1.0000
34.2800 2.0215 1.0000
34.2900 3.0066 1.0000
34.3000 0.9989 1.0000
34.3100 0.9675 1.0000
34.3200 1.9782 1.0000
34.3300 1.0018 1.0000
34.3400 1.9817 1.0000
34.3500 2.9755 1.0000
34.3600 4.0230 1.0000
34.3700 1.9617 1.0000
34.3800 1.9972 1.0000
34.3900 1.9924 1.0000
34.4000 2.9983 1.0000
34.4100 2.0056 1.0000
34.4200 2.9866 1.0000
34.4300 3.0191 1.0000
34.4400 1.9733 1.0000
34.4500 0.9932 1.0000
34.4600 2.9938 1.0000
34.4700 1.9647 1.0000
34.4800 2.9808 1.0000
34.4900 0.0000 1.0000
34.5000 3.9508 1.0000
34.5100 2.0055 1.0000
34.5200 2.9856 1.0000
34.5300 1.9938 1.0000
34.5400 1.0089 1.0000
34.5500 1.9621 1.0000
34.5600 0.0000 1.0000
34.5700 3.0192 1.0000
34.5800 1.9586 1.0000
34.5900 2.0071 1.0000
34.6000 2.9733 1.0000
34.6100 1.9667 1.0000
34.6200 1.9800 1.0000
34.6300 2.9522 1.0000
34.6400 0.9959 1.0000
34.6500 1.9797 1.0000
34.6600 3.9328 1.0000
34.6700 2.0000 1.0000
34.6800 0.9767 1.0000
34.6900 3.9513 1.0000
34.7000 1.9782 1.0000
34.7100 0.0000 1.0000
34.7200 0.9893 1.0000
34.7300 2.0035 1.0000
34.7400 2.9636 1.0000
34.7500 3.0574 1.0000
34.7600 0.0000 1.0000
34.7700 5.9860 1.0000
34.7800 0.0000 1.0000
34.7900 0.9996 1.0000
34.8000 3.9898 1.0000
34.8100 1.9500 1.0000
34.8200 2.9714 1.0000
34.8300 2.9999 1.0000
34.8400 1.9882 1.0000
34.8500 0.0000 1.0000
34.8600 5.0121 1.0000
34.8700 1.0128 1.0000
34.8800 2.0219 1.0000
34.8900 0.9843 1.0000
34.9000 0.9964 1.0000
34.9100 3.9580 1.0000
34.9200 3.9917 1.0000
34.9300 2.0448 1.0000
34.9400 3.0021 1.0000
34.9500 3.0169 1.0000
34.9600 2.9974 1.0000
34.9700 1.9653 1.0000
34.9800 1.0025 1.0000
34.9900 0.9781 1.0000
35.0000 0.9530 1.0000
35.0100 1.9838 1.0000
35.0200 0.0000 1.0000
35.0300 2.9851 1.0000
35.0400 0.9834 1.0000
35.0500 2.9835 1.0000
35.0600 0.9736 1.0000
35.0700 1.9858 1.0000
35.0800 1.9588 1.0000
35.0900 2.0200 1.0000
35.1000 2.0167 1.0000
35.1100 0.0000 1.0000
35.1200 0.0000 1.0000
35.1300 4.0373 1.0000
35.1400 1.9928 1.0000
35.1500 1.9511 1.0000
35.1600 3.9441 1.0000
35.1700 0.9841 1.0000
35.1800 0.0000 1.0000
35.1900 4.9615 1.0000
35.2000 0.9710 1.0000
35.2100 1.0038 1.0000
35.2200 2.9969 1.0000
35.2300 0.9893 1.0000
35.2400 4.9897 1.0000
35.2500 3.0158 1.0000
35.2600 0.9755 1.0000
35.2700 0.0000 1.0000
35.2800 2.0084 1.0000
35.2900 0.0000 1.0000
35.3000 1.9830 1.0000
35.3100 4.9672 1.0000
35.3200 2.9917 1.0000
35.3300 1.9866 1.0000
35.3400 0.0000 1.0000
35.3500 0.9965 1.0000
35.3600 2.0212 1.0000
35.3700 3.0064 1.0000
35.3800 0.0000 1.0000
35.3900 2.9713 1.0000
35.4000 0.0000 1.0000
35.4100 2.9846 1.0000
35.4200 1.0054 1.0000
35.4300 0.9837 1.0000
35.4400 1.9966 1.0000
35.4500 1.9613 1.0000
35.4600 0.9934 1.0000
35.4700 0.9675 1.0000
35.4800 1.0075 1.0000
35.4900 1.9987 1.0000
35.5000 0.0000 1.0000
35.5100 0.9792 1.0000
35.5200 0.0000 1.0000
35.5300 2.9721 1.0000
35.5400 1.9857 1.0000
35.5500 1.0296 1.0000
35.5600 0.0000 1.0000
35.5700 2.0044 1.0000
35.5800 1.9944 1.0000
35.5900 2.9777 1.0000
35.6000 2.0153 1.0000
35.6100 2.0098 1.0000
35.6200 0.9825 1.0000
35.6300 3.0359 1.0000
35.6400 2.9505 1.0000
35.6500 2.0254 1.0000
35.6600 4.8859 1.0000
35.6700 1.0199 1.0000
35.6800 1.9968 1.0000
35.6900 1.9977 1.0000
35.7000 3.9761 1.0000
35.7100 1.9939 1.0000
35.7200 1.9713 1.0000
35.7300 1.9690 1.0000
35.7400 2.0234 1.0000
35.7500 2.9614 1.0000
35.7600 2.9600 1.0000
35.7700 2.0044 1.0000
35.7800 1.9994 1.0000
35.7900 2.0067 1.0000
35.8000 2.9986 1.0000
35.8100 1.9966 1.0000
35.8200 1.9777 1.0000
35.8300 0.9960 1.0000
35.8400 0.0000 1.0000
35.8500 2.9796 1.0000
35.8600 1.0200 1.0000
35.8700 1.0018 1.0000
35.8800 4.9376 1.0000
35.8900 1.9860 1.0000
35.9000 2.9496 1.0000
35.9100 5.9846 1.0000
35.9200 0.0000 1.0000
35.9300 2.9718 1.0000
35.9400 1.9956 1.0000
35.9500 0.9984 1.0000
35.9600 2.0056 1.0000
35.9700 3.9474 1.0000
35.9800 1.0014 1.0000
35.9900 0.0000 1.0000
36.0000 1.0092 1.0000
36.0100 0.0000 1.0000
36.0200 0.0000 1.0000
36.0300 1.9941 1.0000
36.0400 0.0000 1.0000
36.0500 0.9886 1.0000
36.0600 0.0000 1.0000
36.0700 4.8802 1.0000
36.0800 1.0028 1.0000
36.0900 2.9836 1.0000
36.1000 0.0000 1.0000
36.1100 0.0000 1.0000
36.1200 1.0200 1.0000
36.1300 2.9860 1.0000
36.1400 3.0204 1.0000
36.1500 1.0066 1.0000
36.1600 1.0022 1.0000
36.1700 1.9869 1.0000
36.1800 1.9875 1.0000
36.1900 2.9813 1.0000
36.2000 2.0006 1.0000
36.2100 0.9849 1.0000
36.2200 8.9720 1.0000
36.2300 3.9303 1.0000
36.2400 0.0000 1.0000
36.2500 0.0000 1.0000
36.2600 1.0014 1.0000
36.2700 0.0000 1.0000
36.2800 2.0020 1.0000
36.2900 0.9928 1.0000
36.3000 1.9591 1.0000
36.3100 1.9726 1.0000
36.3200 2.0007 1.0000
36.3300 1.9842 1.0000
36.3400 1.0115 1.0000
36.3500 2.9485 1.0000
36.3600 1.9952 1.0000
36.3700 1.0081 1.0000
36.3800 0.0000 1.0000
36.3900 0.9940 1.0000
36.4000 0.9746 1.0000
36.4100 2.9985 1.0000
36.4200 0.0000 1.0000
36.4300 1.9619 1.0000
36.4400 3.9410 1.0000
36.4500 0.9955 1.0000
36.4600 0.0000 1.0000
36.4700 0.0000 1.0000
36.4800 3.9748 1.0000
36.4900 2.0078 1.0000
36.5000 1.9920 1.0000
36.5100 0.9854 1.0000
36.5200 3.0108 1.0000
36.5300 3.0193 1.0000
36.5400 1.9871 1.0000
36.5500 2.9787 1.0000
36.5600 0.9995 1.0000
36.5700 0.9851 1.0000
36.5800 1.9882 1.0000
36.5900 1.0038 1.0000
36.6000 1.0121 1.0000
36.6100 0.9686 1.0000
36.6200 2.9580 1.0000
36.6300 1.9571 1.0000
36.6400 2.9792 1.0000
36.6500 0.0000 1.0000
36.6600 1.0116 1.0000
36.6700 2.0091 1.0000
36.6800 1.9942 1.0000
36.6900 1.9926 1.0000
36.7000 0.9955 1.0000
36.7100 0.0000 1.0000
36.7200 1.9903 1.0000
36.7300 0.0000 1.0000
36.7400 0.0000 1.0000
36.7500 1.0045 1.0000
36.7600 0.0000 1.0000
36.7700 2.0068 1.0000
36.7800 0.9629 1.0000
36.7900 1.0106 1.0000
36.8000 1.9769 1.0000
36.8100 1.0049 1.0000
36.8200 1.9631 1.0000
36.8300 4.0050 1.0000
36.8400 2.1460 1.0000
36.8500 0.0000 1.0000
36.8600 3.9050 1.0000
36.8700 1.0002 1.0000
36.8800 2.9831 1.0000
36.8900 0.0000 1.0000
36.9000 0.9934 1.0000
36.9100 0.9781 1.0000
36.9200 0.9889 1.0000
36.9300 4.9615 1.0000
36.9400 1.9877 1.0000
36.9500 2.9720 1.0000
36.9600 1.0049 1.0000
36.9700 1.9838 1.0000
36.9800 3.0059 1.0000
36.9900 3.0133 1.0000
37.0000 1.9854 1.0000
37.0100 0.9843 1.0000
37.0200 0.0000 1.0000
37.0300 1.9899 1.0000
37.0400 0.0000 1.0000
37.0500 0.9975 1.0000
37.0600 1.0026 1.0000
37.0700 2.0313 1.0000
37.0800 1.0081 1.0000
37.0900 3.0212 1.0000
37.1000 2.9766 1.0000
37.1100 3.0014 1.0000
37.1200 0.9903 1.0000
37.1300 0.0000 1.0000
37.1400 2.0189 1.0000
37.1500 0.0000 1.0000
37.1600 0.0000 1.0000
37.1700 0.9804 1.0000
37.1800 1.9846 1.0000
37.1900 2.9760 1.0000
37.2000 0.9755 1.0000
37.2100 1.0045 1.0000
37.2200 0.9921 1.0000
37.2300 2.0048 1.0000
37.2400 1.9979 1.0000
37.2500 0.9755 1.0000
37.2600 4.9405 1.0000
37.2700 3.9776 1.0000
37.2800 0.9965 1.0000
37.2900 1.0007 1.0000
37.3000 0.9716 1.0000
37.3100 2.9590 1.0000
37.3200 1.9706 1.0000
37.3300 3.9896 1.0000
37.3400 1.9938 1.0000
37.3500 4.9502 1.0000
37.3600 2.9583 1.0000
37.3700 0.0000 1.0000
37.3800 0.0000 1.0000
37.3900 1.0284 1.0000
37.4000 0.9918 1.0000
37.4100 0.9835 1.0000
37.4200 0.9977 1.0000
37.4300 2.9751 1.0000
37.4400 1.9485 1.0000
37.4500 0.9996 1.0000
37.4600 0.9926 1.0000
37.4700 1.9777 1.0000
37.4800 0.9968 1.0000
37.4900 0.9716 1.0000
37.5000 3.0485 1.0000
37.5100 2.0202 1.0000
37.5200 2.0005 1.0000
37.5300 0.0000 1.0000
37.5400 0.0000 1.0000
37.5500 1.9934 1.0000
37.5600 1.0149 1.0000
37.5700 2.9815 1.0000
37.5800 1.9469 1.0000
37.5900 4.9629 1.0000
37.6000 3.0058 1.0000
37.6100 1.9722 1.0000
37.6200 0.9530 1.0000
37.6300 0.9852 1.0000
37.6400 5.9832 1.0000
37.6500 2.9866 1.0000
37.6600 3.9413 1.0000
37.6700 0.9776 1.0000
37.6800 0.9978 1.0000
37.6900 1.9863 1.0000
37.7000 0.0000 1.0000
37.7100 0.9977 1.0000
37.7200 3.9897 1.0000
37.7300 0.9530 1.0000
37.7400 0.0000 1.0000
37.7500 2.9662 1.0000
37.7600 1.9997 1.0000
37.7700 4.0288 1.0000
37.7800 1.9904 1.0000
37.7900 0.0000 1.0000
37.8000 3.9537 1.0000
37.8100 2.0085 1.0000
37.8200 3.9832 1.0000
37.8300 1.9945 1.0000
37.8400 2.0168 1.0000
37.8500 3.9963 1.0000
37.8600 0.9824 1.0000
37.8700 4.0204 1.0000
37.8800 3.9534 1.0000
37.8900 1.0024 1.0000
37.9000 2.0060 1.0000
37.9100 0.0000 1.0000
37.9200 1.9909 1.0000
37.9300 1.0190 1.0000
37.9400 1.9882 1.0000
37.9500 2.9586 1.0000
37.9600 2.9661 1.0000
37.9700 4.0058 1.0000
37.9800 4.9423 1.0000
37.9900 5.9677 1.0000
38.0000 3.0121 1.0000
38.0100 3.0479 1.0000
38.0200 7.8905 1.0000
38.0300 0.9827 1.0000
38.0400 2.9533 1.0000
38.0500 2.9735 1.0000
38.0600 5.9540 1.0000
38.0700 3.9670 1.0000
38.0800 0.9792 1.0000
38.0900 1.9542 1.0000
38.1000 2.9877 1.0000
38.1100 1.0014 1.0000
38.1200 1.9956 1.0000
38.1300 3.9734 1.0000
38.1400 7.2531 1.0000
38.1500 0.0000 1.0000
38.1600 4.0344 1.0000
38.1700 4.0009 1.0000
38.1800 1.9754 1.0000
38.1900 3.0025 1.0000
38.2000 1.9958 1.0000
38.2100 2.9672 1.0000
38.2200 1.9815 1.0000
38.2300 1.9846 1.0000
38.2400 1.0208 1.0000
38.2500 2.0025 1.0000
38.2600 1.9600 1.0000
38.2700 0.9880 1.0000
38.2800 0.0000 1.0000
38.2900 2.9723 1.0000
38.3000 0.9920 1.0000
38.3100 2.9979 1.0000
38.3200 1.9865 1.0000
38.3300 1.9682 1.0000
38.3400 0.0000 1.0000
38.3500 4.9953 1.0000
38.3600 2.9860 1.0000
38.3700 1.9942 1.0000
38.3800 1.9703 1.0000
38.3900 1.0033 1.0000
38.4000 1.9771 1.0000
38.4100 1.9979 1.0000
38.4200 1.0054 1.0000
38.4300 3.0435 1.0000
38.4400 0.0000 1.0000
38.4500 1.9681 1.0000
38.4600 0.0000 1.0000
38.4700 1.9855 1.0000
38.4800 3.0059 1.0000
38.4900 1.9899 1.0000
38.5000 2.0210 1.0000
38.5100 1.0308 1.0000
38.5200 0.9902 1.0000
38.5300 2.9918 1.0000
38.5400 5.8881 1.0000
38.5500 1.0190 1.0000
38.5600 2.0062 1.0000
38.5700 0.9686 1.0000
38.5800 1.0052 1.0000
38.5900 2.0053 1.0000
38.6000 1.0116 1.0000
38.6100 3.9857 1.0000
38.6200 0.9965 1.0000
38.6300 0.9941 1.0000
38.6400 0.9909 1.0000
38.6500 4.0023 1.0000
38.6600 5.0101 1.0000
38.6700 0.9870 1.0000
38.6800 1.9827 1.0000
38.6900 0.9886 1.0000
38.7000 1.9776 1.0000
38.7100 1.9821 1.0000
38.7200 0.0000 1.0000
38.7300 0.9822 1.0000
38.7400 0.9855 1.0000
38.7500 1.9876 1.0000
38.7600 0.9930 1.0000
38.7700 2.0068 1.0000
38.7800 0.9966 1.0000
38.7900 0.9855 1.0000
38.8000 0.9829 1.0000
38.8100 1.0301 1.0000
38.8200 0.0000 1.0000
38.8300 0.0000 1.0000
38.8400 3.0108 1.0000
38.8500 0.9994 1.0000
38.8600 0.9867 1.0000
38.8700 1.9754 1.0000
38.8800 2.9860 1.0000
38.8900 0.0000 1.0000
38.9000 1.9865 1.0000
38.9100 1.0019 1.0000
38.9200 1.0036 1.0000
38.9300 0.9930 1.0000
38.9400 0.9782 1.0000
38.9500 1.9697 1.0000
38.9600 3.0014 1.0000
38.9700 1.0149 1.0000
38.9800 2.0052 1.0000
38.9900 2.9743 1.0000
39.0000 0.0000 1.0000
39.0100 1.9605 1.0000
39.0200 3.9892 1.0000
39.0300 0.0000 1.0000
39.0400 3.0000 1.0000
39.0500 0.0000 1.0000
39.0600 0.0000 1.0000
39.0700 1.9594 1.0000
39.0800 1.0033 1.0000
39.0900 1.9940 1.0000
39.1000 0.0000 1.0000
39.1100 1.0071 1.0000
39.1200 2.9741 1.0000
39.1300 0.9964 1.0000
39.1400 3.0161 1.0000
39.1500 0.0000 1.0000
39.1600 1.0201 1.0000
39.1700 3.9822 1.0000
39.1800 0.0000 1.0000
39.1900 2.0004 1.0000
39.2000 1.9666 1.0000
39.2100 0.9952 1.0000
39.2200 0.9531 1.0000
39.2300 0.0000 1.0000
39.2400 4.9685 1.0000
39.2500 2.0000 1.0000
39.2600 0.9736 1.0000
39.2700 2.9663 1.0000
39.2800 0.0000 1.0000
39.2900 1.9965 1.0000
39.3000 0.0000 1.0000
39.3100 3.0114 1.0000
39.3200 0.0000 1.0000
39.3300 1.9927 1.0000
39.3400 0.9851 1.0000
39.3500 0.9530 1.0000
39.3600 2.0235 1.0000
39.3700 0.0000 1.0000
39.3800 1.9695 1.0000
39.3900 2.0019 1.0000
39.4000 1.9914 1.0000
39.4100 0.9971 1.0000
39.4200 3.0018 1.0000
39.4300 1.0039 1.0000
39.4400 1.9574 1.0000
39.4500 2.0296 1.0000
39.4600 1.0090 1.0000
39.4700 0.9990 1.0000
39.4800 3.0083 1.0000
39.4900 1.9999 1.0000
39.5000 1.9570 1.0000
39.5100 1.0116 1.0000
39.5200 1.0016 1.0000
39.5300 3.9329 1.0000
39.5400 4.9087 1.0000
39.5500 3.0403 1.0000
39.5600 0.9943 1.0000
39.5700 2.9595 1.0000
39.5800 0.0000 1.0000
39.5900 0.0000 1.0000
39.6000 1.9966 1.0000
39.6100 0.9790 1.0000
39.6200 1.9694 1.0000
39.6300 1.9878 1.0000
39.6400 0.9854 1.0000
39.6500 2.9993 1.0000
39.6600 0.0000 1.0000
39.6700 4.9199 1.0000
39.6800 3.0279 1.0000
39.6900 3.9898 1.0000
39.7000 0.9893 1.0000
39.7100 0.0000 1.0000
39.7200 1.0002 1.0000
39.7300 2.9714 1.0000
39.7400 5.0197 1.0000
39.7500 1.9857 1.0000
39.7600 0.0000 1.0000
39.7700 1.9708 1.0000
39.7800 1.9757 1.0000
39.7900 1.0054 1.0000
39.8000 0.9969 1.0000
39.8100 0.0000 1.0000
39.8200 3.0021 1.0000
39.8300 0.9994 1.0000
39.8400 3.0007 1.0000
39.8500 1.0286 1.0000
39.8600 2.9768 1.0000
39.8700 0.9948 1.0000
39.8800 1.9651 1.0000
39.8900 0.0000 1.0000
39.9000 0.0000 1.0000
39.9100 0.0000 1.0000
39.9200 0.9955 1.0000
39.9300 1.0039 1.0000
39.9400 1.9835 1.0000
39.9500 1.0017 1.0000
39.9600 5.9888 1.0000
39.9700 3.0126 1.0000
39.9800 1.9595 1.0000
39.9900 1.0208 1.0000
40.0000 3.9906 1.0000
40.0100 1.9915 1.0000
40.0200 3.9507 1.0000
40.0300 2.9684 1.0000
40.0400 0.9893 1.0000
40.0500 0.0000 1.0000
40.0600 0.9947 1.0000
40.0700 1.0208 1.0000
40.0800 2.9708 1.0000
40.0900 0.0000 1.0000
40.1000 0.9870 1.0000
40.1100 0.0000 1.0000
40.1200 0.9979 1.0000
40.1300 0.9985 1.0000
40.1400 0.0000 1.0000
40.1500 2.0045 1.0000
40.1600 0.0000 1.0000
40.1700 2.9895 1.0000
40.1800 1.9815 1.0000
40.1900 4.9164 1.0000
40.2000 2.9647 1.0000
40.2100 2.0226 1.0000
40.2200 1.0200 1.0000
40.2300 3.9524 1.0000
40.2400 0.9879 1.0000
40.2500 1.9847 1.0000
40.2600 1.9802 1.0000
40.2700 0.0000 1.0000
40.2800 0.0000 1.0000
40.2900 1.9764 1.0000
40.3000 0.0000 1.0000
40.3100 1.9728 1.0000
40.3200 1.9788 1.0000
40.3300 0.9943 1.0000
40.3400 1.9677 1.0000
40.3500 0.9675 1.0000
40.3600 1.0045 1.0000
40.3700 0.9900 1.0000
40.3800 0.0000 1.0000
40.3900 1.9780 1.0000
40.4000 2.0071 1.0000
40.4100 3.0323 1.0000
40.4200 1.9938 1.0000
40.4300 2.0053 1.0000
40.4400 2.9654 1.0000
40.4500 0.0000 1.0000
40.4600 1.0015 1.0000
40.4700 1.9800 1.0000
40.4800 1.9742 1.0000
40.4900 2.9782 1.0000
40.5000 2.9623 1.0000
40.5100 0.0000 1.0000
40.5200 2.9564 1.0000
40.5300 2.9648 1.0000
40.5400 0.0000 1.0000
40.5500 1.9679 1.0000
40.5600 1.9592 1.0000
40.5700 3.9828 1.0000
40.5800 0.9837 1.0000
40.5900 1.0312 1.0000
40.6000 2.9762 1.0000
40.6100 3.0254 1.0000
40.6200 0.0000 1.0000
40.6300 1.9924 1.0000
40.6400 0.0000 1.0000
40.6500 0.9943 1.0000
40.6600 1.9988 1.0000
40.6700 1.9672 1.0000
40.6800 0.9746 1.0000
40.6900 0.9875 1.0000
40.7000 2.9680 1.0000
40.7100 2.9825 1.0000
40.7200 0.9866 1.0000
40.7300 2.9690 1.0000
40.7400 3.9444 1.0000
40.7500 1.9738 1.0000
40.7600 1.9829 1.0000
40.7700 1.9982 1.0000
40.7800 2.0047 1.0000
40.7900 0.0000 1.0000
40.8000 1.0039 1.0000
40.8100 1.9855 1.0000
40.8200 3.0300 1.0000
40.8300 0.9690 1.0000
40.8400 2.9552 1.0000
40.8500 0.0000 1.0000
40.8600 0.9941 1.0000
40.8700 1.0194 1.0000
40.8800 1.9618 1.0000
40.8900 3.9824 1.0000
40.9000 0.0000 1.0000
40.9100 4.0393 1.0000
40.9200 0.9893 1.0000
40.9300 0.0000 1.0000
40.9400 0.9947 1.0000
40.9500 5.0021 1.0000
40.9600 0.0000 1.0000
40.9700 2.0099 1.0000
40.9800 1.0001 1.0000
40.9900 0.0000 1.0000
41.0000 0.0000 1.0000
41.0100 0.0000 1.0000
41.0200 1.9919 1.0000
41.0300 5.9673 1.0000
41.0400 1.9712 1.0000
41.0500 0.9960 1.0000
41.0600 2.0125 1.0000
41.0700 1.9811 1.0000
41.0800 2.9685 1.0000
41.0900 1.0026 1.0000
41.1000 2.1244 1.0000
41.1100 2.0109 1.0000
41.1200 0.9848 1.0000
41.1300 3.9680 1.0000
41.1400 4.9615 1.0000
41.1500 0.0000 1.0000
41.1600 0.0000 1.0000
41.1700 4.0522 1.0000
41.1800 1.9884 1.0000
41.1900 1.0116 1.0000
41.2000 3.0118 1.0000
41.2100 2.0100 1.0000
41.2200 4.9208 1.0000
41.2300 0.9961 1.0000
41.2400 1.0014 1.0000
41.2500 1.9752 1.0000
41.2600 0.0000 1.0000
41.2700 0.9609 1.0000
41.2800 0.9812 1.0000
41.2900 0.9990 1.0000
41.3000 0.0000 1.0000
41.3100 1.9765 1.0000
41.3200 2.0092 1.0000
41.3300 2.9529 1.0000
41.3400 0.9964 1.0000
41.3500 1.9821 1.0000
41.3600 1.9850 1.0000
41.3700 0.9945 1.0000
41.3800 0.0000 1.0000
41.3900 0.9981 1.0000
41.4000 2.0065 1.0000
41.4100 2.0113 1.0000
41.4200 2.0073 1.0000
41.4300 2.0094 1.0000
41.4400 0.9997 1.0000
41.4500 2.0073 1.0000
41.4600 2.0147 1.0000
41.4700 4.0363 1.0000
41.4800 2.9822 1.0000
41.4900 1.9985 1.0000
41.5000 1.9712 1.0000
41.5100 1.0078 1.0000
41.5200 0.0000 1.0000
41.5300 1.9861 1.0000
41.5400 0.9914 1.0000
41.5500 2.9720 1.0000
41.5600 0.9893 1.0000
41.5700 1.9739 1.0000
41.5800 3.0192 1.0000
41.5900 1.0256 1.0000
41.6000 1.9720 1.0000
41.6100 0.0000 1.0000
41.6200 3.9572 1.0000
41.6300 0.0000 1.0000
41.6400 2.9812 1.0000
41.6500 1.0190 1.0000
41.6600 0.0000 1.0000
41.6700 2.9624 1.0000
41.6800 1.9950 1.0000
41.6900 1.0116 1.0000
41.7000 0.0000 1.0000
41.7100 3.9597 1.0000
41.7200 1.0101 1.0000
41.7300 2.0105 1.0000
41.7400 1.9960 1.0000
41.7500 0.0000 1.0000
41.7600 1.0226 1.0000
41.7700 0.9921 1.0000
41.7800 1.9787 1.0000
41.7900 0.9824 1.0000
41.8000 4.9551 1.0000
41.8100 1.9802 1.0000
41.8200 0.0000 1.0000
41.8300 0.9949 1.0000
41.8400 1.0002 1.0000
41.8500 0.0000 1.0000
41.8600 0.9774 1.0000
41.8700 0.0000 1.0000
41.8800 1.9870 1.0000
41.8900 0.9755 1.0000
41.9000 3.0024 1.0000
41.9100 2.9709 1.0000
41.9200 2.9764 1.0000
41.9300 1.9900 1.0000
41.9400 0.9803 1.0000
41.9500 5.0515 1.0000
41.9600 0.0000 1.0000
41.9700 0.9920 1.0000
41.9800 2.9784 1.0000
41.9900 0.9918 1.0000
42.0000 0.0000 1.0000
42.0100 1.9595 1.0000
42.0200 1.9932 1.0000
42.0300 1.9824 1.0000
42.0400 0.9855 1.0000
42.0500 0.9943 1.0000
42.0600 1.0092 1.0000
42.0700 4.9918 1.0000
42.0800 3.0120 1.0000
42.0900 1.9727 1.0000
42.1000 0.9895 1.0000
42.1100 4.1358 1.0000
42.1200 0.0000 1.0000
42.1300 0.0000 1.0000
42.1400 3.0249 1.0000
42.1500 1.9749 1.0000
42.1600 3.9811 1.0000
42.1700 1.0038 1.0000
42.1800 4.9656 1.0000
42.1900 1.0019 1.0000
42.2000 2.0066 1.0000
42.2100 3.9552 1.0000
42.2200 3.0098 1.0000
42.2300 3.9772 1.0000
42.2400 0.0000 1.0000
42.2500 2.9922 1.0000
42.2600 0.0000 1.0000
42.2700 2.9525 1.0000
42.2800 0.0000 1.0000
42.2900 0.0000 1.0000
42.3000 2.9631 1.0000
42.3100 1.0194 1.0000
42.3200 3.9588 1.0000
42.3300 1.9756 1.0000
42.3400 0.9658 1.0000
42.3500 0.9629 1.0000
42.3600 6.0309 1.0000
42.3700 0.9932 1.0000
42.3800 0.0000 1.0000
42.3900 1.0001 1.0000
42.4000 1.9540 1.0000
42.4100 0.0000 1.0000
42.4200 2.8934 1.0000
42.4300 0.9920 1.0000
42.4400 3.9671 1.0000
42.4500 0.9953 1.0000
42.4600 1.9840 1.0000
42.4700 1.9746 1.0000
42.4800 0.0000 1.0000
42.4900 1.9614 1.0000
42.5000 0.0000 1.0000
42.5100 2.0202 1.0000
42.5200 0.0000 1.0000
42.5300 0.0000 1.0000
42.5400 1.9890 1.0000
42.5500 0.9964 1.0000
42.5600 0.9900 1.0000
42.5700 0.0000 1.0000
42.5800 0.0000 1.0000
42.5900 4.0054 1.0000
42.6000 1.0019 1.0000
42.6100 2.0140 1.0000
42.6200 0.9781 1.0000
42.6300 1.0115 1.0000
42.6400 2.9646 1.0000
42.6500 1.9844 1.0000
42.6600 0.9935 1.0000
42.6700 2.0080 1.0000
42.6800 0.0000 1.0000
42.6900 0.9942 1.0000
42.7000 0.0000 1.0000
42.7100 5.9472 1.0000
42.7200 1.9788 1.0000
42.7300 1.0026 1.0000
42.7400 1.0014 1.0000
42.7500 2.9930 1.0000
42.7600 3.9694 1.0000
42.7700 0.9984 1.0000
42.7800 2.0106 1.0000
42.7900 1.9979 1.0000
42.8000 2.9794 1.0000
42.8100 1.0110 1.0000
42.8200 1.1415 1.0000
42.8300 3.0309 1.0000
42.8400 2.9979 1.0000
42.8500 4.0029 1.0000
42.8600 0.9938 1.0000
42.8700 1.9706 1.0000
42.8800 0.9932 1.0000
42.8900 0.9827 1.0000
42.9000 0.9890 1.0000
42.9100 0.9764 1.0000
42.9200 1.9902 1.0000
42.9300 1.9832 1.0000
42.9400 0.9870 1.0000
42.9500 0.9886 1.0000
42.9600 2.9772 1.0000
42.9700 1.0032 1.0000
42.9800 1.9741 1.0000
42.9900 1.0008 1.0000
43.0000 2.9463 1.0000
43.0100 0.9943 1.0000
43.0200 1.0026 1.0000
43.0300 1.9976 1.0000
43.0400 0.9993 1.0000
43.0500 0.9965 1.0000
43.0600 0.0000 1.0000
43.0700 2.0007 1.0000
43.0800 1.9962 1.0000
43.0900 1.0044 1.0000
43.1000 1.9575 1.0000
43.1100 1.9821 1.0000
43.1200 1.9855 1.0000
43.1300 1.9687 1.0000
43.1400 1.0019 1.0000
43.1500 0.0000 1.0000
43.1600 5.9220 1.0000
43.1700 0.9879 1.0000
43.1800 2.0081 1.0000
43.1900 0.9924 1.0000
43.2000 2.9940 1.0000
43.2100 1.9783 1.0000
43.2200 1.0199 1.0000
43.2300 4.0045 1.0000
43.2400 0.0000 1.0000
43.2500 0.9938 1.0000
43.2600 2.0059 1.0000
43.2700 4.9892 1.0000
43.2800 2.0088 1.0000
43.2900 0.9924 1.0000
43.3000 2.9779 1.0000
43.3100 0.0000 1.0000
43.3200 0.9892 1.0000
43.3300 4.9478 1.0000
43.3400 1.0284 1.0000
43.3500 0.9889 1.0000
43.3600 2.0027 1.0000
43.3700 0.9904 1.0000
43.3800 0.9837 1.0000
43.3900 1.0052 1.0000
43.4000 0.0000 1.0000
43.4100 1.9807 1.0000
43.4200 1.9734 1.0000
43.4300 1.9472 1.0000
43.4400 2.0256 1.0000
43.4500 3.9929 1.0000
43.4600 3.0155 1.0000
43.4700 1.9779 1.0000
43.4800 1.0000 1.0000
43.4900 1.9986 1.0000
43.5000 2.9791 1.0000
43.5100 1.0060 1.0000
43.5200 0.9890 1.0000
43.5300 1.9831 1.0000
43.5400 0.9836 1.0000
43.5500 0.9530 1.0000
43.5600 1.9411 1.0000
43.5700 2.1365 1.0000
43.5800 0.0000 1.0000
43.5900 4.0058 1.0000
43.6000 0.9776 1.0000
43.6100 5.9544 1.0000
43.6200 1.9654 1.0000
43.6300 1.0055 1.0000
43.6400 0.0000 1.0000
43.6500 0.9890 1.0000
43.6600 3.9589 1.0000
43.6700 0.9755 1.0000
43.6800 1.9701 1.0000
43.6900 3.0038 1.0000
43.7000 2.0069 1.0000
43.7100 1.9873 1.0000
43.7200 0.9920 1.0000
43.7300 2.9432 1.0000
43.7400 1.9948 1.0000
43.7500 0.0000 1.0000
43.7600 1.0017 1.0000
43.7700 1.9829 1.0000
43.7800 3.0214 1.0000
43.7900 1.9666 1.0000
43.8000 1.9736 1.0000
43.8100 0.0000 1.0000
43.8200 0.9878 1.0000
43.8300 0.0000 1.0000
43.8400 1.0014 1.0000
43.8500 1.0200 1.0000
43.8600 1.9602 1.0000
43.8700 2.9785 1.0000
43.8800 3.0079 1.0000
43.8900 0.0000 1.0000
43.9000 2.0399 1.0000
43.9100 3.0031 1.0000
43.9200 0.9918 1.0000
43.9300 0.0000 1.0000
43.9400 3.9563 1.0000
43.9500 2.9784 1.0000
43.9600 1.9872 1.0000
43.9700 0.9966 1.0000
43.9800 4.9890 1.0000
43.9900 1.9959 1.0000
44.0000 2.9588 1.0000
44.0100 3.0080 1.0000
44.0200 0.0000 1.0000
44.0300 0.0000 1.0000
44.0400 2.0173 1.0000
44.0500 0.0000 1.0000
44.0600 2.9712 1.0000
44.0700 0.9988 1.0000
44.0800 4.0264 1.0000
44.0900 1.9964 1.0000
44.1000 5.0018 1.0000
44.1100 3.0262 1.0000
44.1200 3.0189 1.0000
44.1300 3.9683 1.0000
44.1400 2.9932 1.0000
44.1500 2.9704 1.0000
44.1600 5.9641 1.0000
44.1700 4.0334 1.0000
44.1800 5.9865 1.0000
44.1900 0.9783 1.0000
44.2000 0.9941 1.0000
44.2100 5.9858 1.0000
44.2200 7.9405 1.0000
44.2300 3.9821 1.0000
44.2400 11.8704 1.0000
44.2500 6.8691 1.0000
44.2600 10.0152 1.0000
44.2700 6.9311 1.0000
44.2800 10.9482 1.0000
44.2900 8.9675 1.0000
44.3000 7.9570 1.0000
44.3100 13.9546 1.0000
44.3200 8.9998 1.0000
44.3300 3.9814 1.0000
44.3400 10.9756 1.0000
44.3500 6.0101 1.0000
44.3600 10.9940 1.0000
44.3700 9.9931 1.0000
44.3800 16.1971 1.0000
44.3900 5.9564 1.0000
44.4000 6.0161 1.0000
44.4100 5.9732 1.0000
44.4200 3.0219 1.0000
44.4300 5.9581 1.0000
44.4400 6.9918 1.0000
44.4500 3.9966 1.0000
44.4600 6.9443 1.0000
44.4700 3.9819 1.0000
44.4800 0.9781 1.0000
44.4900 7.0854 1.0000
44.5000 3.9961 1.0000
44.5100 1.0005 1.0000
44.5200 6.9942 1.0000
44.5300 4.9826 1.0000
44.5400 5.0165 1.0000
44.5500 3.9967 1.0000
44.5600 5.9729 1.0000
44.5700 4.0252 1.0000
44.5800 0.9955 1.0000
44.5900 0.9855 1.0000
44.6000 3.0203 1.0000
44.6100 2.0100 1.0000
44.6200 1.9916 1.0000
44.6300 2.9911 1.0000
44.6400 3.9077 1.0000
44.6500 1.9930 1.0000
44.6600 2.9614 1.0000
44.6700 2.9985 1.0000
44.6800 5.9452 1.0000
44.6900 0.0000 1.0000
44.7000 0.0000 1.0000
44.7100 0.9956 1.0000
44.7200 0.9953 1.0000
44.7300 3.0179 1.0000
44.7400 0.9961 1.0000
44.7500 3.0092 1.0000
44.7600 2.0199 1.0000
44.7700 0.9817 1.0000
44.7800 1.9858 1.0000
44.7900 5.9689 1.0000
44.8000 2.0062 1.0000
44.8100 2.0483 1.0000
44.8200 1.9898 1.0000
44.8300 1.9921 1.0000
44.8400 1.9629 1.0000
44.8500 3.9670 1.0000
44.8600 0.9901 1.0000
44.8700 0.0000 1.0000
44.8800 2.9780 1.0000
44.8900 0.9865 1.0000
44.9000 0.0000 1.0000
44.9100 2.9884 1.0000
44.9200 1.9913 1.0000
44.9300 1.9991 1.0000
44.9400 6.0116 1.0000
44.9500 2.0272 1.0000
44.9600 1.9648 1.0000
44.9700 0.0000 1.0000
44.9800 1.9932 1.0000
44.9900 0.9918 1.0000
45.0000 1.9799 1.0000
45.0100 2.0077 1.0000
45.0200 0.9953 1.0000
45.0300 0.0000 1.0000
45.0400 0.9703 1.0000
45.0500 4.0230 1.0000
45.0600 3.9673 1.0000
45.0700 1.9937 1.0000
45.0800 1.9788 1.0000
45.0900 2.9466 1.0000
45.1000 3.9778 1.0000
45.1100 2.0077 1.0000
45.1200 0.0000 1.0000
45.1300 1.0009 1.0000
45.1400 1.9773 1.0000
45.1500 0.0000 1.0000
45.1600 1.9834 1.0000
45.1700 3.9845 1.0000
45.1800 1.9715 1.0000
45.1900 0.0000 1.0000
45.2000 0.0000 1.0000
45.2100 0.9686 1.0000
45.2200 2.9929 1.0000
45.2300 0.0000 1.0000
45.2400 1.9927 1.0000
45.2500 0.9965 1.0000
45.2600 2.0013 1.0000
45.2700 2.0270 1.0000
45.2800 3.0138 1.0000
45.2900 0.9804 1.0000
45.3000 2.9543 1.0000
45.3100 1.9925 1.0000
45.3200 0.0000 1.0000
45.3300 3.9814 1.0000
45.3400 0.9767 1.0000
45.3500 1.9888 1.0000
45.3600 0.9873 1.0000
45.3700 2.9631 1.0000
45.3800 0.9978 1.0000
45.3900 3.9456 1.0000
45.4000 3.9973 1.0000
45.4100 0.9980 1.0000
45.4200 0.9930 1.0000
45.4300 0.9961 1.0000
45.4400 1.0208 1.0000
45.4500 1.9867 1.0000
45.4600 1.9942 1.0000
45.4700 1.9926 1.0000
45.4800 0.9924 1.0000
45.4900 2.9915 1.0000
45.5000 0.0000 1.0000
45.5100 5.0385 1.0000
45.5200 2.0127 1.0000
45.5300 1.0300 1.0000
45.5400 1.0071 1.0000
45.5500 1.0178 1.0000
45.5600 1.9969 1.0000
45.5700 0.0000 1.0000
45.5800 1.0003 1.0000
45.5900 1.0284 1.0000
45.6000 0.0000 1.0000
45.6100 1.0008 1.0000
45.6200 1.0294 1.0000
45.6300 1.0026 1.0000
45.6400 1.9816 1.0000
45.6500 2.0139 1.0000
45.6600 2.0125 1.0000
45.6700 1.9810 1.0000
45.6800 2.0200 1.0000
45.6900 1.9777 1.0000
45.7000 0.0000 1.0000
45.7100 2.0058 1.0000
45.7200 2.9616 1.0000
45.7300 1.1415 1.0000
45.7400 1.9921 1.0000
45.7500 4.9853 1.0000
45.7600 1.9855 1.0000
45.7700 4.9749 1.0000
45.7800 3.0018 1.0000
45.7900 2.9977 1.0000
45.8000 0.0000 1.0000
45.8100 3.1332 1.0000
45.8200 0.9886 1.0000
45.8300 2.0057 1.0000
45.8400 5.9882 1.0000
45.8500 0.9901 1.0000
45.8600 3.9896 1.0000
45.8700 0.0000 1.0000
45.8800 1.0309 1.0000
45.8900 0.0000 1.0000
45.9000 2.0426 1.0000
45.9100 4.9199 1.0000
45.9200 4.0266 1.0000
45.9300 1.9829 1.0000
45.9400 1.0078 1.0000
45.9500 3.0032 1.0000
45.9600 2.9658 1.0000
45.9700 1.9809 1.0000
45.9800 0.0000 1.0000
45.9900 2.0035 1.0000
46.0000 3.0403 1.0000
46.0100 1.9766 1.0000
46.0200 1.0303 1.0000
46.0300 1.0200 1.0000
46.0400 0.0000 1.0000
46.0500 0.9835 1.0000
46.0600 1.9842 1.0000
46.0700 0.9900 1.0000
46.0800 0.9776 1.0000
46.0900 0.9958 1.0000
46.1000 2.0202 1.0000
46.1100 0.9945 1.0000
46.1200 0.9994 1.0000
46.1300 5.0394 1.0000
46.1400 0.9824 1.0000
46.1500 1.9740 1.0000
46.1600 0.0000 1.0000
46.1700 1.0072 1.0000
46.1800 1.9879 1.0000
46.1900 2.9441 1.0000
46.2000 1.9988 1.0000
46.2100 1.9706 1.0000
46.2200 2.9891 1.0000
46.2300 2.9688 1.0000
46.2400 2.0004 1.0000
46.2500 1.9595 1.0000
46.2600 0.9983 1.0000
46.2700 2.0031 1.0000
46.2800 0.9880 1.0000
46.2900 1.0149 1.0000
46.3000 0.9755 1.0000
46.3100 0.9829 1.0000
46.3200 0.0000 1.0000
46.3300 5.9639 1.0000
46.3400 2.0059 1.0000
46.3500 1.9818 1.0000
46.3600 3.9890 1.0000
46.3700 2.0202 1.0000
46.3800 0.9890 1.0000
46.3900 1.9580 1.0000
46.4000 2.0019 1.0000
46.4100 2.0127 1.0000
46.4200 0.9955 1.0000
46.4300 6.0389 1.0000
46.4400 1.0078 1.0000
46.4500 3.9959 1.0000
46.4600 2.9887 1.0000
46.4700 0.9774 1.0000
46.4800 2.9781 1.0000
46.4900 0.0000 1.0000
46.5000 2.9850 1.0000
46.5100 2.0181 1.0000
46.5200 0.0000 1.0000
46.5300 0.9899 1.0000
46.5400 1.9783 1.0000
46.5500 1.9485 1.0000
46.5600 2.0035 1.0000
46.5700 2.9790 1.0000
46.5800 3.0224 1.0000
46.5900 4.9549 1.0000
46.6000 2.0033 1.0000
46.6100 2.9996 1.0000
46.6200 1.9720 1.0000
46.6300 0.9847 1.0000
46.6400 2.9769 1.0000
46.6500 2.9473 1.0000
46.6600 1.9955 1.0000
46.6700 0.0000 1.0000
46.6800 2.9485 1.0000
46.6900 5.9692 1.0000
46.7000 0.9844 1.0000
46.7100 1.9996 1.0000
46.7200 1.9836 1.0000
46.7300 1.9975 1.0000
46.7400 0.0000 1.0000
46.7500 3.9627 1.0000
46.7600 0.0000 1.0000
46.7700 3.9593 1.0000
46.7800 0.9968 1.0000
46.7900 2.9896 1.0000
46.8000 0.0000 1.0000
46.8100 0.9920 1.0000
46.8200 0.9895 1.0000
46.8300 0.0000 1.0000
46.8400 2.0209 1.0000
46.8500 0.9928 1.0000
46.8600 2.9727 1.0000
46.8700 1.9734 1.0000
46.8800 0.9905 1.0000
46.8900 2.0009 1.0000
46.9000 0.0000 1.0000
46.9100 1.9447 1.0000
46.9200 2.9942 1.0000
46.9300 2.9319 1.0000
46.9400 2.0193 1.0000
46.9500 5.9201 1.0000
46.9600 2.9864 1.0000
46.9700 0.0000 1.0000
46.9800 2.9730 1.0000
46.9900 0.9701 1.0000
47.0000 0.0000 1.0000
47.0100 0.0000 1.0000
47.0200 1.0019 1.0000
47.0300 2.9998 1.0000
47.0400 1.0009 1.0000
47.0500 0.0000 1.0000
47.0600 0.9720 1.0000
47.0700 1.9920 1.0000
47.0800 1.9799 1.0000
47.0900 0.0000 1.0000
47.1000 1.0037 1.0000
47.1100 2.9936 1.0000
47.1200 3.9717 1.0000
47.1300 1.9760 1.0000
47.1400 1.0085 1.0000
47.1500 2.9922 1.0000
47.1600 1.9776 1.0000
47.1700 2.0066 1.0000
47.1800 0.9790 1.0000
47.1900 3.9980 1.0000
47.2000 0.9873 1.0000
47.2100 2.9758 1.0000
47.2200 2.9698 1.0000
47.2300 1.0053 1.0000
47.2400 1.9793 1.0000
47.2500 3.9428 1.0000
47.2600 1.9750 1.0000
47.2700 0.9831 1.0000
47.2800 1.9849 1.0000
47.2900 0.0000 1.0000
47.3000 1.0200 1.0000
47.3100 0.0000 1.0000
47.3200 1.9892 1.0000
47.3300 1.9511 1.0000
47.3400 0.9953 1.0000
47.3500 3.9767 1.0000
47.3600 5.0095 1.0000
47.3700 1.9779 1.0000
47.3800 1.9861 1.0000
47.3900 0.0000 1.0000
47.4000 1.9531 1.0000
47.4100 3.0082 1.0000
47.4200 4.9586 1.0000
47.4300 2.0029 1.0000
47.4400 0.9851 1.0000
47.4500 1.9897 1.0000
47.4600 2.9719 1.0000
47.4700 1.0007 1.0000
47.4800 0.0000 1.0000
47.4900 3.9842 1.0000
47.5000 2.0223 1.0000
47.5100 4.9615 1.0000
47.5200 1.9988 1.0000
47.5300 1.9617 1.0000
47.5400 2.0062 1.0000
47.5500 2.0266 1.0000
47.5600 1.9629 1.0000
47.5700 2.0050 1.0000
47.5800 0.9888 1.0000
47.5900 0.0000 1.0000
47.6000 0.9980 1.0000
47.6100 1.9571 1.0000
47.6200 2.9753 1.0000
47.6300 1.9892 1.0000
47.6400 1.9892 1.0000
47.6500 2.9697 1.0000
47.6600 1.9933 1.0000
47.6700 1.9966 1.0000
47.6800 1.9655 1.0000
47.6900 0.9792 1.0000
47.7000 2.9899 1.0000
47.7100 0.0000 1.0000
47.7200 3.9801 1.0000
47.7300 1.0306 1.0000
47.7400 1.9796 1.0000
47.7500 2.9996 1.0000
47.7600 1.9997 1.0000
47.7700 0.0000 1.0000
47.7800 1.9668 1.0000
47.7900 2.9655 1.0000
47.8000 3.9824 1.0000
47.8100 1.0022 1.0000
47.8200 1.0022 1.0000
47.8300 3.9816 1.0000
47.8400 0.9978 1.0000
47.8500 0.9827 1.0000
47.8600 4.0164 1.0000
47.8700 0.0000 1.0000
47.8800 4.0364 1.0000
47.8900 0.9932 1.0000
47.9000 0.9939 1.0000
47.9100 1.0190 1.0000
47.9200 2.9295 1.0000
47.9300 2.0210 1.0000
47.9400 3.9797 1.0000
47.9500 0.9781 1.0000
47.9600 0.9855 1.0000
47.9700 3.9942 1.0000
47.9800 1.0089 1.0000
47.9900 3.9586 1.0000
48.0000 2.9881 1.0000
48.0100 1.9959 1.0000
48.0200 0.9895 1.0000
48.0300 2.0073 1.0000
48.0400 2.0253 1.0000
48.0500 0.9893 1.0000
48.0600 5.9775 1.0000
48.0700 2.9991 1.0000
48.0800 3.9241 1.0000
48.0900 1.9801 1.0000
48.1000 0.9943 1.0000
48.1100 0.9916 1.0000
48.1200 3.9260 1.0000
48.1300 0.0000 1.0000
48.1400 0.0000 1.0000
48.1500 3.9540 1.0000
48.1600 2.9943 1.0000
48.1700 3.0259 1.0000
48.1800 2.9553 1.0000
48.1900 1.9817 1.0000
48.2000 2.9356 1.0000
48.2100 1.9778 1.0000
48.2200 1.9878 1.0000
48.2300 0.0000 1.0000
48.2400 0.0000 1.0000
48.2500 3.9965 1.0000
48.2600 2.9752 1.0000
48.2700 1.9994 1.0000
48.2800 5.9547 1.0000
48.2900 1.9770 1.0000
48.3000 0.9883 1.0000
48.3100 2.9968 1.0000
48.3200 3.0111 1.0000
48.3300 2.0110 1.0000
48.3400 2.9801 1.0000
48.3500 1.9978 1.0000
48.3600 1.9829 1.0000
48.3700 3.0054 1.0000
48.3800 0.0000 1.0000
48.3900 0.0000 1.0000
48.4000 0.9977 1.0000
48.4100 2.9789 1.0000
48.4200 0.9530 1.0000
48.4300 3.0025 1.0000
48.4400 1.9613 1.0000
48.4500 2.0180 1.0000
48.4600 1.9980 1.0000
48.4700 1.0054 1.0000
48.4800 0.9816 1.0000
48.4900 1.0300 1.0000
48.5000 2.0102 1.0000
48.5100 0.0000 1.0000
48.5200 0.9984 1.0000
48.5300 0.0000 1.0000
48.5400 0.0000 1.0000
48.5500 3.9949 1.0000
48.5600 0.9996 1.0000
48.5700 4.0032 1.0000
48.5800 0.9755 1.0000
48.5900 1.0101 1.0000
48.6000 1.9536 1.0000
48.6100 1.9920 1.0000
48.6200 3.0113 1.0000
48.6300 4.0095 1.0000
48.6400 0.9854 1.0000
48.6500 1.9959 1.0000
48.6600 0.9919 1.0000
48.6700 3.9884 1.0000
48.6800 0.0000 1.0000
48.6900 1.9792 1.0000
48.7000 2.9659 1.0000
48.7100 0.9854 1.0000
48.7200 0.9948 1.0000
48.7300 3.9349 1.0000
48.7400 5.0332 1.0000
48.7500 0.9869 1.0000
48.7600 5.0126 1.0000
48.7700 1.9877 1.0000
48.7800 1.9392 1.0000
48.7900 1.9928 1.0000
48.8000 4.0140 1.0000
48.8100 2.9979 1.0000
48.8200 0.9912 1.0000
48.8300 1.0109 1.0000
48.8400 0.0000 1.0000
48.8500 1.9538 1.0000
48.8600 2.0022 1.0000
48.8700 0.9870 1.0000
48.8800 5.8964 1.0000
48.8900 2.9788 1.0000
48.9000 1.0045 1.0000
48.9100 1.9838 1.0000
48.9200 2.9789 1.0000
48.9300 1.9789 1.0000
48.9400 1.9757 1.0000
48.9500 1.9878 1.0000
48.9600 1.0002 1.0000
48.9700 4.0054 1.0000
48.9800 3.9330 1.0000
48.9900 4.9527 1.0000
49.0000 0.9984 1.0000
49.0100 4.0070 1.0000
49.0200 2.9842 1.0000
49.0300 1.9808 1.0000
49.0400 3.0199 1.0000
49.0500 3.0250 1.0000
49.0600 3.9141 1.0000
49.0700 2.0020 1.0000
49.0800 0.0000 1.0000
49.0900 0.0000 1.0000
49.1000 1.9586 1.0000
49.1100 1.9591 1.0000
49.1200 2.0120 1.0000
49.1300 0.0000 1.0000
49.1400 0.9818 1.0000
49.1500 1.0309 1.0000
49.1600 1.9860 1.0000
49.1700 0.9776 1.0000
49.1800 3.0137 1.0000
49.1900 2.9833 1.0000
49.2000 1.9809 1.0000
49.2100 0.9855 1.0000
49.2200 1.9708 1.0000
49.2300 0.9756 1.0000
49.2400 0.0000 1.0000
49.2500 4.9389 1.0000
49.2600 1.9465 1.0000
49.2700 5.9875 1.0000
49.2800 2.0282 1.0000
49.2900 1.0101 1.0000
49.3000 0.9835 1.0000
49.3100 2.9863 1.0000
49.3200 2.9703 1.0000
49.3300 4.0023 1.0000
49.3400 0.0000 1.0000
49.3500 1.0178 1.0000
49.3600 0.9989 1.0000
49.3700 0.9900 1.0000
49.3800 2.0224 1.0000
49.3900 1.9938 1.0000
49.4000 0.9901 1.0000
49.4100 0.9893 1.0000
49.4200 1.0015 1.0000
49.4300 1.9719 1.0000
49.4400 1.9882 1.0000
49.4500 0.0000 1.0000
49.4600 0.9867 1.0000
49.4700 0.0000 1.0000
49.4800 0.9788 1.0000
49.4900 1.0048 1.0000
49.5000 0.9866 1.0000
49.5100 1.0038 1.0000
49.5200 2.9932 1.0000
49.5300 2.9707 1.0000
49.5400 2.0286 1.0000
49.5500 3.9984 1.0000
49.5600 1.9868 1.0000
49.5700 0.9958 1.0000
49.5800 0.9975 1.0000
49.5900 2.9806 1.0000
49.6000 3.0057 1.0000
49.6100 0.0000 1.0000
49.6200 1.9378 1.0000
49.6300 4.9788 1.0000
49.6400 1.0294 1.0000
49.6500 0.9948 1.0000
49.6600 4.0014 1.0000
49.6700 1.0039 1.0000
49.6800 1.0200 1.0000
49.6900 1.9785 1.0000
49.7000 4.9626 1.0000
49.7100 3.9461 1.0000
49.7200 2.0084 1.0000
49.7300 0.0000 1.0000
49.7400 1.9733 1.0000
49.7500 2.0284 1.0000
49.7600 0.9942 1.0000
49.7700 0.0000 1.0000
49.7800 3.0006 1.0000
49.7900 0.0000 1.0000
49.8000 1.9756 1.0000
49.8100 5.0116 1.0000
49.8200 0.9675 1.0000
49.8300 1.0123 1.0000
49.8400 0.9907 1.0000
49.8500 0.0000 1.0000
49.8600 0.9959 1.0000
49.8700 2.9647 1.0000
49.8800 2.9801 1.0000
49.8900 1.0089 1.0000
49.9000 0.0000 1.0000
49.9100 1.9802 1.0000
49.9200 0.0000 1.0000
49.9300 1.9909 1.0000
49.9400 0.0000 1.0000
49.9500 0.9776 1.0000
49.9600 3.0148 1.0000
49.9700 0.9776 1.0000
49.9800 1.9461 1.0000
49.9900 3.0080 1.0000
50.0000 2.9719 1.0000
50.0100 3.9883 1.0000
50.0200 0.0000 1.0000
50.0300 1.9850 1.0000
50.0400 1.9983 1.0000
50.0500 3.0073 1.0000
50.0600 1.9724 1.0000
50.0700 2.9885 1.0000
50.0800 0.9782 1.0000
50.0900 1.9819 1.0000
50.1000 4.0428 1.0000
50.1100 0.9993 1.0000
50.1200 0.9762 1.0000
50.1300 2.0001 1.0000
50.1400 1.9873 1.0000
50.1500 1.0089 1.0000
50.1600 1.9926 1.0000
50.1700 0.0000 1.0000
50.1800 2.0121 1.0000
50.1900 1.9946 1.0000
50.2000 1.9774 1.0000
50.2100 0.9870 1.0000
50.2200 0.9746 1.0000
50.2300 0.9851 1.0000
50.2400 0.0000 1.0000
50.2500 0.0000 1.0000
50.2600 2.9955 1.0000
50.2700 0.9958 1.0000
50.2800 0.0000 1.0000
50.2900 1.0308 1.0000
50.3000 1.9966 1.0000
50.3100 4.0410 1.0000
50.3200 4.0233 1.0000
50.3300 1.0066 1.0000
50.3400 0.0000 1.0000
50.3500 1.9975 1.0000
50.3600 2.9264 1.0000
50.3700 0.0000 1.0000
50.3800 1.9870 1.0000
50.3900 0.0000 1.0000
50.4000 2.9663 1.0000
50.4100 0.9893 1.0000
50.4200 5.0062 1.0000
50.4300 2.0180 1.0000
50.4400 0.9942 1.0000
50.4500 2.9952 1.0000
50.4600 1.9904 1.0000
50.4700 0.9814 1.0000
50.4800 1.0024 1.0000
50.4900 0.0000 1.0000
50.5000 0.9996 1.0000
50.5100 2.0198 1.0000
50.5200 0.9886 1.0000
50.5300 1.9819 1.0000
50.5400 2.9464 1.0000
50.5500 5.0022 1.0000
50.5600 0.9869 1.0000
50.5700 0.9609 1.0000
50.5800 2.0077 1.0000
50.5900 3.9350 1.0000
50.6000 1.9546 1.0000
50.6100 3.0068 1.0000
50.6200 2.9767 1.0000
50.6300 0.9774 1.0000
50.6400 0.9802 1.0000
50.6500 2.9042 1.0000
50.6600 0.0000 1.0000
50.6700 1.9825 1.0000
50.6800 0.0000 1.0000
50.6900 0.0000 1.0000
50.7000 2.0084 1.0000
50.7100 0.9972 1.0000
50.7200 1.9560 1.0000
50.7300 1.0085 1.0000
50.7400 4.9981 1.0000
50.7500 2.9816 1.0000
50.7600 3.0057 1.0000
50.7700 1.0010 1.0000
50.7800 1.0029 1.0000
50.7900 2.9639 1.0000
50.8000 0.9766 1.0000
50.8100 2.0054 1.0000
50.8200 3.0136 1.0000
50.8300 3.9202 1.0000
50.8400 0.9854 1.0000
50.8500 4.0791 1.0000
50.8600 0.9907 1.0000
50.8700 2.9970 1.0000
50.8800 1.0149 1.0000
50.8900 3.9925 1.0000
50.9000 0.9893 1.0000
50.9100 1.9777 1.0000
50.9200 1.9777 1.0000
50.9300 0.0000 1.0000
50.9400 2.9876 1.0000
50.9500 2.0203 1.0000
50.9600 1.9949 1.0000
50.9700 1.9552 1.0000
50.9800 0.0000 1.0000
50.9900 4.9886 1.0000
51.0000 0.0000 1.0000
51.0100 0.9957 1.0000
51.0200 0.0000 1.0000
51.0300 3.0350 1.0000
51.0400 0.0000 1.0000
51.0500 2.0090 1.0000
51.0600 1.9882 1.0000
51.0700 0.0000 1.0000
51.0800 0.9728 1.0000
51.0900 1.9495 1.0000
51.1000 1.9714 1.0000
51.1100 1.9948 1.0000
51.1200 0.9978 1.0000
51.1300 0.0000 1.0000
51.1400 3.0017 1.0000
51.1500 0.0000 1.0000
51.1600 1.9729 1.0000
51.1700 4.0118 1.0000
51.1800 1.9609 1.0000
51.1900 3.0309 1.0000
51.2000 0.0000 1.0000
51.2100 0.0000 1.0000
51.2200 2.9729 1.0000
51.2300 1.9762 1.0000
51.2400 0.0000 1.0000
51.2500 2.0250 1.0000
51.2600 1.9542 1.0000
51.2700 1.9560 1.0000
51.2800 3.9709 1.0000
51.2900 0.9827 1.0000
51.3000 1.9844 1.0000
51.3100 5.0020 1.0000
51.3200 0.9964 1.0000
51.3300 1.0019 1.0000
51.3400 1.9979 1.0000
51.3500 1.9535 1.0000
51.3600 3.9597 1.0000
51.3700 2.0087 1.0000
51.3800 1.9940 1.0000
51.3900 1.0507 1.0000
51.4000 0.9690 1.0000
51.4100 2.9798 1.0000
51.4200 2.9865 1.0000
51.4300 2.0096 1.0000
51.4400 1.1415 1.0000
51.4500 1.9859 1.0000
51.4600 0.0000 1.0000
51.4700 1.0054 1.0000
51.4800 0.9711 1.0000
51.4900 1.9691 1.0000
51.5000 2.9738 1.0000
51.5100 2.0268 1.0000
51.5200 4.9315 1.0000
51.5300 1.0236 1.0000
51.5400 0.9839 1.0000
51.5500 1.0002 1.0000
51.5600 0.0000 1.0000
51.5700 0.0000 1.0000
51.5800 3.9588 1.0000
51.5900 1.0016 1.0000
51.6000 1.9703 1.0000
51.6100 4.0125 1.0000
51.6200 1.0002 1.0000
51.6300 1.0063 1.0000
51.6400 1.0115 1.0000
51.6500 0.9654 1.0000
51.6600 1.0005 1.0000
51.6700 6.0112 1.0000
51.6800 1.0014 1.0000
51.6900 0.0000 1.0000
51.7000 0.9820 1.0000
51.7100 1.9928 1.0000
51.7200 0.9937 1.0000
51.7300 2.9913 1.0000
51.7400 1.9744 1.0000
51.7500 1.9686 1.0000
51.7600 1.9921 1.0000
51.7700 2.0294 1.0000
51.7800 0.9893 1.0000
51.7900 0.9701 1.0000
51.8000 1.9614 1.0000
51.8100 0.9940 1.0000
51.8200 0.9979 1.0000
51.8300 0.9942 1.0000
51.8400 2.0072 1.0000
51.8500 2.9740 1.0000
51.8600 2.9764 1.0000
51.8700 1.9744 1.0000
51.8800 0.0000 1.0000
51.8900 3.0093 1.0000
51.9000 1.9897 1.0000
51.9100 2.9909 1.0000
51.9200 0.9990 1.0000
51.9300 0.0000 1.0000
51.9400 1.0044 1.0000
51.9500 2.9724 1.0000
51.9600 3.0306 1.0000
51.9700 1.9622 1.0000
51.9800 1.0081 1.0000
51.9900 1.9834 1.0000
52.0000 0.0000 1.0000
52.0100 0.0000 1.0000
52.0200 1.9920 1.0000
52.0300 2.0010 1.0000
52.0400 1.9845 1.0000
52.0500 0.9969 1.0000
52.0600 0.0000 1.0000
52.0700 2.9990 1.0000
52.0800 0.9918 1.0000
52.0900 0.9728 1.0000
52.1000 0.0000 1.0000
52.1100 1.0039 1.0000
52.1200 1.0002 1.0000
52.1300 1.9947 1.0000
52.1400 2.9739 1.0000
52.1500 0.0000 1.0000
52.1600 1.0004 1.0000
52.1700 2.9707 1.0000
52.1800 0.9940 1.0000
52.1900 4.0121 1.0000
52.2000 1.0025 1.0000
52.2100 1.0022 1.0000
52.2200 0.0000 1.0000
52.2300 0.9865 1.0000
52.2400 1.9594 1.0000
52.2500 0.9827 1.0000
52.2600 1.9838 1.0000
52.2700 2.0185 1.0000
52.2800 0.9756 1.0000
52.2900 1.9742 1.0000
52.3000 0.0000 1.0000
52.3100 2.9724 1.0000
52.3200 5.0039 1.0000
52.3300 1.0026 1.0000
52.3400 1.9502 1.0000
52.3500 0.0000 1.0000
52.3600 0.9893 1.0000
52.3700 1.0033 1.0000
52.3800 0.0000 1.0000
52.3900 0.9894 1.0000
52.4000 2.0264 1.0000
52.4100 0.0000 1.0000
52.4200 0.9932 1.0000
52.4300 5.0984 1.0000
52.4400 1.9937 1.0000
52.4500 1.9723 1.0000
52.4600 2.9727 1.0000
52.4700 4.9591 1.0000
52.4800 0.9977 1.0000
52.4900 1.9794 1.0000
52.5000 1.9815 1.0000
52.5100 1.9953 1.0000
52.5200 3.0027 1.0000
52.5300 4.0333 1.0000
52.5400 1.0200 1.0000
52.5500 2.9906 1.0000
52.5600 0.9675 1.0000
52.5700 0.9774 1.0000
52.5800 1.9762 1.0000
52.5900 0.9938 1.0000
52.6000 2.0175 1.0000
52.6100 0.0000 1.0000
52.6200 2.0151 1.0000
52.6300 1.0201 1.0000
52.6400 1.9976 1.0000
52.6500 1.9759 1.0000
52.6600 0.9781 1.0000
52.6700 2.0347 1.0000
52.6800 0.9530 1.0000
52.6900 0.0000 1.0000
52.7000 5.9248 1.0000
52.7100 0.0000 1.0000
52.7200 2.0067 1.0000
52.7300 1.9913 1.0000
52.7400 0.9928 1.0000
52.7500 1.0001 1.0000
52.7600 1.0208 1.0000
52.7700 1.9854 1.0000
52.7800 0.0000 1.0000
52.7900 2.0253 1.0000
52.8000 0.0000 1.0000
52.8100 4.9357 1.0000
52.8200 0.9985 1.0000
52.8300 2.9611 1.0000
52.8400 2.9786 1.0000
52.8500 2.0086 1.0000
52.8600 1.9727 1.0000
52.8700 2.9873 1.0000
52.8800 3.0309 1.0000
52.8900 1.0029 1.0000
52.9000 1.0009 1.0000
52.9100 3.9294 1.0000
52.9200 0.0000 1.0000
52.9300 0.0000 1.0000
52.9400 3.9783 1.0000
52.9500 0.9979 1.0000
52.9600 0.9530 1.0000
52.9700 1.9766 1.0000
52.9800 0.9966 1.0000
52.9900 0.0000 1.0000
53.0000 2.9904 1.0000
53.0100 0.9912 1.0000
53.0200 1.9976 1.0000
53.0300 1.9869 1.0000
53.0400 0.0000 1.0000
53.0500 0.9865 1.0000
53.0600 4.9871 1.0000
53.0700 0.0000 1.0000
53.0800 2.9826 1.0000
53.0900 4.9457 1.0000
53.1000 0.0000 1.0000
53.1100 2.9866 1.0000
53.1200 3.9718 1.0000
53.1300 1.9920 1.0000
53.1400 0.9964 1.0000
53.1500 1.9868 1.0000
53.1600 3.0300 1.0000
53.1700 0.9769 1.0000
53.1800 2.9952 1.0000
53.1900 2.0036 1.0000
53.2000 0.9891 1.0000
53.2100 1.9712 1.0000
53.2200 3.9815 1.0000
53.2300 3.9325 1.0000
53.2400 1.9847 1.0000
53.2500 3.0213 1.0000
53.2600 1.9635 1.0000
53.2700 4.0166 1.0000
53.2800 2.9374 1.0000
53.2900 1.9657 1.0000
53.3000 2.9682 1.0000
53.3100 0.9904 1.0000
53.3200 1.0026 1.0000
53.3300 2.0203 1.0000
53.3400 4.9823 1.0000
53.3500 2.9936 1.0000
53.3600 2.9945 1.0000
53.3700 1.0179 1.0000
53.3800 0.9958 1.0000
53.3900 2.9883 1.0000
53.4000 2.9885 1.0000
53.4100 5.9353 1.0000
53.4200 3.0009 1.0000
53.4300 1.0053 1.0000
53.4400 4.0156 1.0000
53.4500 0.0000 1.0000
53.4600 0.0000 1.0000
53.4700 0.0000 1.0000
53.4800 0.9889 1.0000
53.4900 0.9930 1.0000
53.5000 1.0338 1.0000
53.5100 3.9991 1.0000
53.5200 0.9953 1.0000
53.5300 0.9995 1.0000
53.5400 2.9926 1.0000
53.5500 0.9839 1.0000
53.5600 1.9908 1.0000
53.5700 3.9999 1.0000
53.5800 1.9715 1.0000
53.5900 1.0149 1.0000
53.6000 4.9964 1.0000
53.6100 0.0000 1.0000
53.6200 2.9767 1.0000
53.6300 0.9977 1.0000
53.6400 0.0000 1.0000
53.6500 0.9629 1.0000
53.6600 1.9836 1.0000
53.6700 0.9829 1.0000
53.6800 2.9892 1.0000
53.6900 2.0179 1.0000
53.7000 2.9732 1.0000
53.7100 0.9794 1.0000
53.7200 0.0000 1.0000
53.7300 0.9893 1.0000
53.7400 0.9782 1.0000
53.7500 1.9712 1.0000
53.7600 1.9928 1.0000
53.7700 1.0018 1.0000
53.7800 2.9923 1.0000
53.7900 0.0000 1.0000
53.8000 4.9629 1.0000
53.8100 0.0000 1.0000
53.8200 2.9505 1.0000
53.8300 3.1391 1.0000
53.8400 2.9564 1.0000
53.8500 1.9745 1.0000
53.8600 2.9368 1.0000
53.8700 0.9920 1.0000
53.8800 1.9630 1.0000
53.8900 3.9904 1.0000
53.9000 3.9540 1.0000
53.9100 1.9993 1.0000
53.9200 3.9933 1.0000
53.9300 1.9929 1.0000
53.9400 3.9370 1.0000
53.9500 2.9694 1.0000
53.9600 2.9776 1.0000
53.9700 2.9774 1.0000
53.9800 1.9598 1.0000
53.9900 1.9877 1.0000
54.0000 2.0004 1.0000
54.0100 0.0000 1.0000
54.0200 1.0045 1.0000
54.0300 1.9911 1.0000
54.0400 0.9774 1.0000
54.0500 2.9894 1.0000
54.0600 3.0010 1.0000
54.0700 3.0040 1.0000
54.0800 1.0014 1.0000
54.0900 3.0277 1.0000
54.1000 0.0000 1.0000
54.1100 2.0060 1.0000
54.1200 0.0000 1.0000
54.1300 1.0109 1.0000
54.1400 5.9509 1.0000
54.1500 1.0208 1.0000
54.1600 1.0002 1.0000
54.1700 1.9729 1.0000
54.1800 0.0000 1.0000
54.1900 0.0000 1.0000
54.2000 0.9961 1.0000
54.2100 1.9829 1.0000
54.2200 0.0000 1.0000
54.2300 0.0000 1.0000
54.2400 1.9743 1.0000
54.2500 4.9838 1.0000
54.2600 1.9734 1.0000
54.2700 1.9981 1.0000
54.2800 0.9794 1.0000
54.2900 2.0091 1.0000
54.3000 2.9642 1.0000
54.3100 1.9730 1.0000
54.3200 5.0342 1.0000
54.3300 0.9859 1.0000
54.3400 2.9923 1.0000
54.3500 1.0114 1.0000
54.3600 2.0093 1.0000
54.3700 0.0000 1.0000
54.3800 2.0148 1.0000
54.3900 2.9563 1.0000
54.4000 3.0197 1.0000
54.4100 0.0000 1.0000
54.4200 3.9867 1.0000
54.4300 1.9901 1.0000
54.4400 4.0147 1.0000
54.4500 1.9895 1.0000
54.4600 1.9788 1.0000
54.4700 3.9914 1.0000
54.4800 0.0000 1.0000
54.4900 0.0000 1.0000
54.5000 1.9856 1.0000
54.5100 1.9607 1.0000
54.5200 2.9821 1.0000
54.5300 0.0000 1.0000
54.5400 3.9813 1.0000
54.5500 2.9632 1.0000
54.5600 1.9878 1.0000
54.5700 1.9852 1.0000
54.5800 0.9935 1.0000
54.5900 1.0098 1.0000
54.6000 0.9728 1.0000
54.6100 4.0127 1.0000
54.6200 2.9912 1.0000
54.6300 0.9781 1.0000
54.6400 2.9747 1.0000
54.6500 1.9985 1.0000
54.6600 0.9930 1.0000
54.6700 4.9817 1.0000
54.6800 3.9691 1.0000
54.6900 3.9385 1.0000
54.7000 2.9383 1.0000
54.7100 4.9811 1.0000
54.7200 2.0215 1.0000
54.7300 0.9870 1.0000
54.7400 0.9691 1.0000
54.7500 1.9907 1.0000
54.7600 1.0123 1.0000
54.7700 1.9929 1.0000
54.7800 1.9799 1.0000
54.7900 1.0147 1.0000
54.8000 3.9226 1.0000
54.8100 0.0000 1.0000
54.8200 0.9889 1.0000
54.8300 3.9979 1.0000
54.8400 1.9950 1.0000
54.8500 0.0000 1.0000
54.8600 0.0000 1.0000
54.8700 3.0154 1.0000
54.8800 3.0352 1.0000
54.8900 0.0000 1.0000
54.9000 2.9790 1.0000
54.9100 0.9947 1.0000
54.9200 4.9828 1.0000
54.9300 5.9584 1.0000
54.9400 2.9309 1.0000
54.9500 6.8989 1.0000
54.9600 0.0000 1.0000
54.9700 3.0017 1.0000
54.9800 0.9990 1.0000
54.9900 0.0000 1.0000
55.0000 0.0000 1.0000
55.0100 0.9922 1.0000
55.0200 1.9787 1.0000
55.0300 0.0000 1.0000
55.0400 1.0009 1.0000
55.0500 2.9639 1.0000
55.0600 2.0053 1.0000
55.0700 0.9983 1.0000
55.0800 0.0000 1.0000
55.0900 1.9680 1.0000
55.1000 0.9851 1.0000
55.1100 3.9836 1.0000
55.1200 0.0000 1.0000
55.1300 3.9420 1.0000
55.1400 1.9888 1.0000
55.1500 0.9984 1.0000
55.1600 2.0612 1.0000
55.1700 0.0000 1.0000
55.1800 2.9739 1.0000
55.1900 0.0000 1.0000
55.2000 0.9851 1.0000
55.2100 0.9794 1.0000
55.2200 1.0016 1.0000
55.2300 0.9791 1.0000
55.2400 2.9928 1.0000
55.2500 1.9950 1.0000
55.2600 0.0000 1.0000
55.2700 0.9939 1.0000
55.2800 3.9901 1.0000
55.2900 5.0154 1.0000
55.3000 1.9889 1.0000
55.3100 0.9964 1.0000
55.3200 1.0306 1.0000
55.3300 4.0161 1.0000
55.3400 1.9584 1.0000
55.3500 0.0000 1.0000
55.3600 1.9934 1.0000
55.3700 1.9614 1.0000
55.3800 0.9928 1.0000
55.3900 1.0356 1.0000
55.4000 1.9856 1.0000
55.4100 0.0000 1.0000
55.4200 3.0010 1.0000
55.4300 3.0012 1.0000
55.4400 2.9988 1.0000
55.4500 2.9736 1.0000
55.4600 0.9746 1.0000
55.4700 0.0000 1.0000
55.4800 4.9559 1.0000
55.4900 0.9837 1.0000
55.5000 2.9801 1.0000
55.5100 1.9630 1.0000
55.5200 0.9791 1.0000
55.5300 1.0018 1.0000
55.5400 5.9811 1.0000
55.5500 2.0212 1.0000
55.5600 1.9922 1.0000
55.5700 1.9710 1.0000
55.5800 1.0115 1.0000
55.5900 3.0210 1.0000
55.6000 0.0000 1.0000
55.6100 0.0000 1.0000
55.6200 1.9575 1.0000
55.6300 1.9894 1.0000
55.6400 2.9436 1.0000
55.6500 4.0339 1.0000
55.6600 2.0218 1.0000
55.6700 0.9993 1.0000
55.6800 1.0101 1.0000
55.6900 0.9890 1.0000
55.7000 3.9610 1.0000
55.7100 4.0156 1.0000
55.7200 1.9728 1.0000
55.7300 1.9976 1.0000
55.7400 0.9919 1.0000
55.7500 1.9984 1.0000
55.7600 1.9807 1.0000
55.7700 0.9853 1.0000
55.7800 0.0000 1.0000
55.7900 5.9309 1.0000
55.8000 0.9890 1.0000
55.8100 0.9996 1.0000
55.8200 0.0000 1.0000
55.8300 2.9368 1.0000
55.8400 4.0096 1.0000
55.8500 1.9847 1.0000
55.8600 3.0205 1.0000
55.8700 3.0174 1.0000
55.8800 1.9909 1.0000
55.8900 0.9912 1.0000
55.9000 0.0000 1.0000
55.9100 0.0000 1.0000
55.9200 2.0088 1.0000
55.9300 0.9939 1.0000
55.9400 4.9497 1.0000
55.9500 0.0000 1.0000
55.9600 1.9476 1.0000
55.9700 0.9841 1.0000
55.9800 1.9820 1.0000
55.9900 3.9893 1.0000
56.0000 0.0000 1.0000
56.0100 0.9940 1.0000
56.0200 1.9794 1.0000
56.0300 2.0122 1.0000
56.0400 3.9819 1.0000
56.0500 0.9782 1.0000
56.0600 1.9666 1.0000
56.0700 1.0303 1.0000
56.0800 0.0000 1.0000
56.0900 2.9646 1.0000
56.1000 0.9990 1.0000
56.1100 1.9750 1.0000
56.1200 0.9782 1.0000
56.1300 0.0000 1.0000
56.1400 1.9815 1.0000
56.1500 1.0051 1.0000
56.1600 1.0054 1.0000
56.1700 2.9654 1.0000
56.1800 1.0033 1.0000
56.1900 3.9933 1.0000
56.2000 1.9683 1.0000
56.2100 0.9531 1.0000
56.2200 2.9857 1.0000
56.2300 0.0000 1.0000
56.2400 0.9889 1.0000
56.2500 0.0000 1.0000
56.2600 0.0000 1.0000
56.2700 2.0113 1.0000
56.2800 3.9720 1.0000
56.2900 1.9676 1.0000
56.3000 1.9696 1.0000
56.3100 0.0000 1.0000
56.3200 1.9761 1.0000
56.3300 0.0000 1.0000
56.3400 0.9919 1.0000
56.3500 0.9994 1.0000
56.3600 0.9932 1.0000
56.3700 0.0000 1.0000
56.3800 0.0000 1.0000
56.3900 0.0000 1.0000
56.4000 4.9452 1.0000
56.4100 2.9701 1.0000
56.4200 0.0000 1.0000
56.4300 4.0187 1.0000
56.4400 0.9794 1.0000
56.4500 2.9972 1.0000
56.4600 0.9934 1.0000
56.4700 3.0104 1.0000
56.4800 0.9840 1.0000
56.4900 1.9506 1.0000
56.5000 1.9640 1.0000
56.5100 3.9724 1.0000
56.5200 0.9853 1.0000
56.5300 1.9616 1.0000
56.5400 0.9701 1.0000
56.5500 1.9636 1.0000
56.5600 2.9964 1.0000
56.5700 1.9929 1.0000
56.5800 2.9978 1.0000
56.5900 1.9902 1.0000
56.6000 3.9887 1.0000
56.6100 3.9954 1.0000
56.6200 3.9727 1.0000
56.6300 1.0156 1.0000
56.6400 4.9179 1.0000
56.6500 1.9835 1.0000
56.6600 3.9805 1.0000
56.6700 3.9559 1.0000
56.6800 5.1202 1.0000
56.6900 1.9854 1.0000
56.7000 2.0365 1.0000
56.7100 0.9933 1.0000
56.7200 2.9820 1.0000
56.7300 3.9392 1.0000
56.7400 2.9849 1.0000
56.7500 4.0025 1.0000
56.7600 2.0182 1.0000
56.7700 3.0147 1.0000
56.7800 2.9487 1.0000
56.7900 2.1392 1.0000
56.8000 1.9874 1.0000
56.8100 2.9602 1.0000
56.8200 1.9860 1.0000
56.8300 2.9803 1.0000
56.8400 1.9747 1.0000
56.8500 0.9701 1.0000
56.8600 2.9962 1.0000
56.8700 2.0312 1.0000
56.8800 3.9597 1.0000
56.8900 0.0000 1.0000
56.9000 0.9955 1.0000
56.9100 2.0287 1.0000
56.9200 1.0054 1.0000
56.9300 1.0016 1.0000
56.9400 1.0411 1.0000
56.9500 0.9997 1.0000
56.9600 1.9759 1.0000
56.9700 2.9576 1.0000
56.9800 0.9530 1.0000
56.9900 1.9910 1.0000
57.0000 1.9803 1.0000
57.0100 0.0000 1.0000
57.0200 0.0000 1.0000
57.0300 0.0000 1.0000
57.0400 4.0184 1.0000
57.0500 3.9934 1.0000
57.0600 1.9667 1.0000
57.0700 0.9983 1.0000
57.0800 1.9965 1.0000
57.0900 0.0000 1.0000
57.1000 1.0169 1.0000
57.1100 1.9801 1.0000
57.1200 1.9679 1.0000
57.1300 2.0040 1.0000
57.1400 1.9938 1.0000
57.1500 1.9966 1.0000
57.1600 2.0059 1.0000
57.1700 0.0000 1.0000
57.1800 0.0000 1.0000
57.1900 1.9804 1.0000
57.2000 3.0514 1.0000
57.2100 2.9628 1.0000
57.2200 1.9784 1.0000
57.2300 1.9891 1.0000
57.2400 0.0000 1.0000
57.2500 2.9688 1.0000
57.2600 4.0228 1.0000
57.2700 1.9982 1.0000
57.2800 0.9654 1.0000
57.2900 3.9544 1.0000
57.3000 0.0000 1.0000
57.3100 1.9910 1.0000
57.3200 0.9941 1.0000
57.3300 6.9240 1.0000
57.3400 2.9998 1.0000
57.3500 0.0000 1.0000
57.3600 2.0071 1.0000
57.3700 0.9847 1.0000
57.3800 4.0370 1.0000
57.3900 1.9953 1.0000
57.4000 2.9577 1.0000
57.4100 1.0054 1.0000
57.4200 2.0006 1.0000
57.4300 0.9893 1.0000
57.4400 0.0000 1.0000
57.4500 0.9862 1.0000
57.4600 1.0190 1.0000
57.4700 2.9970 1.0000
57.4800 5.9195 1.0000
57.4900 2.0141 1.0000
57.5000 2.9810 1.0000
57.5100 1.0053 1.0000
57.5200 1.0308 1.0000
57.5300 2.0027 1.0000
57.5400 2.0170 1.0000
57.5500 2.9660 1.0000
57.5600 2.0415 1.0000
57.5700 3.0281 1.0000
57.5800 1.0022 1.0000
57.5900 2.9772 1.0000
57.6000 0.9957 1.0000
57.6100 2.0191 1.0000
57.6200 0.0000 1.0000
57.6300 1.9842 1.0000
57.6400 1.9808 1.0000
57.6500 2.0117 1.0000
57.6600 4.9660 1.0000
57.6700 0.9860 1.0000
57.6800 0.9928 1.0000
57.6900 3.0114 1.0000
57.7000 0.9629 1.0000
57.7100 4.0234 1.0000
57.7200 0.0000 1.0000
57.7300 2.9705 1.0000
57.7400 2.9855 1.0000
57.7500 0.9919 1.0000
57.7600 1.9883 1.0000
57.7700 0.0000 1.0000
57.7800 6.0056 1.0000
57.7900 1.9777 1.0000
57.8000 2.9975 1.0000
57.8100 1.0081 1.0000
57.8200 1.0002 1.0000
57.8300 0.0000 1.0000
57.8400 1.0236 1.0000
57.8500 0.9949 1.0000
57.8600 0.9993 1.0000
57.8700 4.0177 1.0000
57.8800 4.9543 1.0000
57.8900 3.0318 1.0000
57.9000 0.9996 1.0000
57.9100 4.0343 1.0000
57.9200 3.0009 1.0000
57.9300 1.0003 1.0000
57.9400 2.9739 1.0000
57.9500 3.9697 1.0000
57.9600 2.0238 1.0000
57.9700 1.9499 1.0000
57.9800 0.0000 1.0000
57.9900 0.0000 1.0000
58.0000 3.9705 1.0000
58.0100 2.0058 1.0000
58.0200 1.9871 1.0000
58.0300 2.9603 1.0000
58.0400 0.9899 1.0000
58.0500 0.0000 1.0000
58.0600 3.9878 1.0000
58.0700 4.9738 1.0000
58.0800 2.0478 1.0000
58.0900 3.0335 1.0000
58.1000 0.0000 1.0000
58.1100 4.9989 1.0000
58.1200 2.9959 1.0000
58.1300 0.9988 1.0000
58.1400 2.9601 1.0000
58.1500 1.9861 1.0000
58.1600 1.9799 1.0000
58.1700 2.9407 1.0000
58.1800 1.9924 1.0000
58.1900 2.0053 1.0000
58.2000 1.9924 1.0000
58.2100 0.0000 1.0000
58.2200 2.0075 1.0000
58.2300 2.9717 1.0000
58.2400 2.9843 1.0000
58.2500 0.9903 1.0000
58.2600 0.9817 1.0000
58.2700 1.9932 1.0000
58.2800 0.9899 1.0000
58.2900 0.9981 1.0000
58.3000 4.0100 1.0000
58.3100 0.0000 1.0000
58.3200 2.9790 1.0000
58.3300 0.9880 1.0000
58.3400 0.0000 1.0000
58.3500 1.9969 1.0000
58.3600 0.0000 1.0000
58.3700 3.9809 1.0000
58.3800 2.9812 1.0000
58.3900 1.9822 1.0000
58.4000 1.9789 1.0000
58.4100 2.9681 1.0000
58.4200 1.9935 1.0000
58.4300 1.9977 1.0000
58.4400 1.9855 1.0000
58.4500 0.0000 1.0000
58.4600 2.0111 1.0000
58.4700 0.0000 1.0000
58.4800 1.9992 1.0000
58.4900 0.9794 1.0000
58.5000 0.9851 1.0000
58.5100 1.9989 1.0000
58.5200 1.0003 1.0000
58.5300 3.9628 1.0000
58.5400 4.9238 1.0000
58.5500 4.9644 1.0000
58.5600 0.0000 1.0000
58.5700 2.9586 1.0000
58.5800 3.9998 1.0000
58.5900 1.9907 1.0000
58.6000 4.0244 1.0000
58.6100 3.9598 1.0000
58.6200 1.9752 1.0000
58.6300 2.9791 1.0000
58.6400 0.9844 1.0000
58.6500 1.0028 1.0000
58.6600 0.0000 1.0000
58.6700 4.9754 1.0000
58.6800 2.0160 1.0000
58.6900 3.9663 1.0000
58.7000 0.9918 1.0000
58.7100 0.9943 1.0000
58.7200 0.0000 1.0000
58.7300 0.0000 1.0000
58.7400 0.0000 1.0000
58.7500 2.9807 1.0000
58.7600 3.0326 1.0000
58.7700 1.9693 1.0000
58.7800 5.9453 1.0000
58.7900 0.9979 1.0000
58.8000 1.0001 1.0000
58.8100 2.9852 1.0000
58.8200 2.9933 1.0000
58.8300 3.0078 1.0000
58.8400 0.9871 1.0000
58.8500 5.0126 1.0000
58.8600 2.9843 1.0000
58.8700 3.0028 1.0000
58.8800 0.9934 1.0000
58.8900 0.0000 1.0000
58.9000 3.9682 1.0000
58.9100 3.9646 1.0000
58.9200 4.0065 1.0000
58.9300 1.9796 1.0000
58.9400 2.0021 1.0000
58.9500 2.9557 1.0000
58.9600 4.0034 1.0000
58.9700 3.0030 1.0000
58.9800 2.0283 1.0000
58.9900 0.9977 1.0000
59.0000 3.0150 1.0000
59.0100 1.9728 1.0000
59.0200 3.9364 1.0000
59.0300 3.0186 1.0000
59.0400 0.0000 1.0000
59.0500 0.9703 1.0000
59.0600 3.0437 1.0000
59.0700 2.0041 1.0000
59.0800 0.9924 1.0000
59.0900 0.0000 1.0000
59.1000 1.0134 1.0000
59.1100 2.9943 1.0000
59.1200 1.0078 1.0000
59.1300 3.9447 1.0000
59.1400 1.9858 1.0000
59.1500 1.9793 1.0000
59.1600 0.9741 1.0000
59.1700 1.0019 1.0000
59.1800 0.0000 1.0000
59.1900 0.9755 1.0000
59.2000 0.0000 1.0000
59.2100 0.9736 1.0000
59.2200 3.0152 1.0000
59.2300 2.9864 1.0000
59.2400 2.9727 1.0000
59.2500 2.9979 1.0000
59.2600 3.0049 1.0000
59.2700 0.9889 1.0000
59.2800 2.9878 1.0000
59.2900 1.0048 1.0000
59.3000 2.0040 1.0000
59.3100 0.9781 1.0000
59.3200 3.9787 1.0000
59.3300 1.9672 1.0000
59.3400 0.9701 1.0000
59.3500 0.0000 1.0000
59.3600 1.9846 1.0000
59.3700 0.9701 1.0000
59.3800 0.0000 1.0000
59.3900 0.0000 1.0000
59.4000 0.9965 1.0000
59.4100 0.9805 1.0000
59.4200 2.0075 1.0000
59.4300 5.9975 1.0000
59.4400 2.0234 1.0000
59.4500 3.9428 1.0000
59.4600 0.0000 1.0000
59.4700 7.0370 1.0000
59.4800 2.0052 1.0000
59.4900 0.9977 1.0000
59.5000 0.9926 1.0000
59.5100 2.9677 1.0000
59.5200 2.9728 1.0000
59.5300 0.0000 1.0000
59.5400 2.9704 1.0000
59.5500 3.9870 1.0000
59.5600 2.9634 1.0000
59.5700 1.9956 1.0000
59.5800 4.0065 1.0000
59.5900 1.0033 1.0000
59.6000 1.9783 1.0000
59.6100 1.0054 1.0000
59.6200 6.9686 1.0000
59.6300 2.0043 1.0000
59.6400 2.9900 1.0000
59.6500 1.0106 1.0000
59.6600 1.9681 1.0000
59.6700 0.9969 1.0000
59.6800 3.0070 1.0000
59.6900 2.0170 1.0000
59.7000 2.0274 1.0000
59.7100 1.0025 1.0000
59.7200 1.0039 1.0000
59.7300 1.9292 1.0000
59.7400 0.0000 1.0000
59.7500 1.0109 1.0000
59.7600 1.0052 1.0000
59.7700 2.9848 1.0000
59.7800 3.9720 1.0000
59.7900 1.0052 1.0000
59.8000 1.0078 1.0000
59.8100 0.9979 1.0000
59.8200 1.9929 1.0000
59.8300 2.0016 1.0000
59.8400 2.9940 1.0000
59.8500 2.9630 1.0000
59.8600 3.9507 1.0000
59.8700 0.0000 1.0000
59.8800 0.9774 1.0000
59.8900 0.9948 1.0000
59.9000 3.0218 1.0000
59.9100 1.9798 1.0000
59.9200 3.9923 1.0000
59.9300 0.0000 1.0000
59.9400 1.9981 1.0000
59.9500 0.0000 1.0000
59.9600 2.9942 1.0000
59.9700 1.9986 1.0000
59.9800 2.9503 1.0000
59.9900 2.9690 1.0000
60.0000 1.0011 1.0000
60.0100 0.9886 1.0000
60.0200 2.9870 1.0000
60.0300 0.0000 1.0000
60.0400 2.9896 1.0000
60.0500 1.9573 1.0000
60.0600 2.0089 1.0000
60.0700 2.0249 1.0000
60.0800 3.0186 1.0000
60.0900 1.9818 1.0000
60.1000 2.9583 1.0000
60.1100 2.9976 1.0000
60.1200 0.9870 1.0000
60.1300 0.9814 1.0000
60.1400 1.9980 1.0000
60.1500 2.9625 1.0000
60.1600 2.0300 1.0000
60.1700 1.0117 1.0000
60.1800 1.0005 1.0000
60.1900 1.0186 1.0000
60.2000 1.9713 1.0000
60.2100 0.0000 1.0000
60.2200 1.9576 1.0000
60.2300 1.9696 1.0000
60.2400 1.9841 1.0000
60.2500 0.0000 1.0000
60.2600 4.0378 1.0000
60.2700 2.0286 1.0000
60.2800 1.0087 1.0000
60.2900 3.0415 1.0000
60.3000 4.9978 1.0000
60.3100 3.9729 1.0000
60.3200 1.0166 1.0000
60.3300 0.9904 1.0000
60.3400 3.9615 1.0000
60.3500 2.9728 1.0000
60.3600 1.9689 1.0000
60.3700 2.9976 1.0000
60.3800 0.0000 1.0000
60.3900 4.9934 1.0000
60.4000 2.9848 1.0000
60.4100 1.9678 1.0000
60.4200 0.0000 1.0000
60.4300 1.0092 1.0000
60.4400 4.9197 1.0000
60.4500 3.9158 1.0000
60.4600 2.9644 1.0000
60.4700 4.0478 1.0000
60.4800 1.0010 1.0000
60.4900 1.9899 1.0000
60.5000 1.0122 1.0000
60.5100 2.9699 1.0000
60.5200 1.9859 1.0000
60.5300 1.9999 1.0000
60.5400 0.9882 1.0000
60.5500 3.0219 1.0000
60.5600 0.9658 1.0000
60.5700 4.9721 1.0000
60.5800 2.9487 1.0000
60.5900 1.9735 1.0000
60.6000 2.9809 1.0000
60.6100 0.9825 1.0000
60.6200 0.9530 1.0000
60.6300 0.9805 1.0000
60.6400 3.9875 1.0000
60.6500 0.9728 1.0000
60.6600 2.0398 1.0000
60.6700 2.0029 1.0000
60.6800 5.8977 1.0000
60.6900 2.0065 1.0000
60.7000 4.0090 1.0000
60.7100 1.9891 1.0000
60.7200 2.9638 1.0000
60.7300 1.9935 1.0000
60.7400 0.9939 1.0000
60.7500 1.9872 1.0000
60.7600 2.9768 1.0000
60.7700 1.9960 1.0000
60.7800 0.9969 1.0000
60.7900 0.0000 1.0000
60.8000 5.9494 1.0000
60.8100 0.0000 1.0000
60.8200 1.9936 1.0000
60.8300 1.0200 1.0000
60.8400 3.9702 1.0000
60.8500 0.0000 1.0000
60.8600 2.0027 1.0000
60.8700 2.9799 1.0000
60.8800 1.0470 1.0000
60.8900 5.9400 1.0000
60.9000 3.0065 1.0000
60.9100 0.9899 1.0000
60.9200 2.0168 1.0000
60.9300 2.0223 1.0000
60.9400 3.9353 1.0000
60.9500 2.9424 1.0000
60.9600 2.9506 1.0000
60.9700 0.0000 1.0000
60.9800 0.9937 1.0000
60.9900 2.0176 1.0000
61.0000 1.0286 1.0000
61.0100 1.9852 1.0000
61.0200 1.9884 1.0000
61.0300 2.9588 1.0000
61.0400 1.9913 1.0000
61.0500 0.9885 1.0000
61.0600 1.0286 1.0000
61.0700 0.9987 1.0000
61.0800 0.0000 1.0000
61.0900 1.9858 1.0000
61.1000 0.9701 1.0000
61.1100 0.0000 1.0000
61.1200 1.9908 1.0000
61.1300 1.9743 1.0000
61.1400 1.9682 1.0000
61.1500 0.0000 1.0000
61.1600 2.0119 1.0000
61.1700 2.0057 1.0000
61.1800 4.9955 1.0000
61.1900 2.9878 1.0000
61.2000 0.0000 1.0000
61.2100 3.9637 1.0000
61.2200 1.0003 1.0000
61.2300 1.9656 1.0000
61.2400 0.9895 1.0000
61.2500 2.0029 1.0000
61.2600 3.9942 1.0000
61.2700 3.9349 1.0000
61.2800 4.9807 1.0000
61.2900 0.0000 1.0000
61.3000 0.0000 1.0000
61.3100 5.0023 1.0000
61.3200 3.0088 1.0000
61.3300 0.9904 1.0000
61.3400 1.0356 1.0000
61.3500 1.9903 1.0000
61.3600 1.9951 1.0000
61.3700 1.9817 1.0000
61.3800 2.9632 1.0000
61.3900 1.0054 1.0000
61.4000 1.0237 1.0000
61.4100 0.9531 1.0000
61.4200 2.9639 1.0000
61.4300 1.0136 1.0000
61.4400 0.9948 1.0000
61.4500 1.9826 1.0000
61.4600 3.9980 1.0000
61.4700 2.9845 1.0000
61.4800 3.0020 1.0000
61.4900 6.9346 1.0000
61.5000 1.9997 1.0000
61.5100 0.9914 1.0000
61.5200 3.9716 1.0000
61.5300 0.0000 1.0000
61.5400 0.9995 1.0000
61.5500 2.0040 1.0000
61.5600 0.0000 1.0000
61.5700 1.0058 1.0000
61.5800 5.0184 1.0000
61.5900 3.9448 1.0000
61.6000 0.0000 1.0000
61.6100 0.9981 1.0000
61.6200 3.0051 1.0000
61.6300 0.9952 1.0000
61.6400 1.9897 1.0000
61.6500 6.9610 1.0000
61.6600 3.0024 1.0000
61.6700 0.9609 1.0000
61.6800 0.0000 1.0000
61.6900 3.9644 1.0000
61.7000 0.9802 1.0000
61.7100 1.9925 1.0000
61.7200 1.9840 1.0000
61.7300 5.0076 1.0000
61.7400 5.0647 1.0000
61.7500 2.9794 1.0000
61.7600 4.0003 1.0000
61.7700 2.9541 1.0000
61.7800 2.0070 1.0000
61.7900 0.0000 1.0000
61.8000 0.9794 1.0000
61.8100 1.0140 1.0000
61.8200 6.9290 1.0000
61.8300 4.0067 1.0000
61.8400 2.9767 1.0000
61.8500 1.9855 1.0000
61.8600 2.9626 1.0000
61.8700 1.9916 1.0000
61.8800 1.9925 1.0000
61.8900 1.0008 1.0000
61.9000 1.9869 1.0000
61.9100 2.9801 1.0000
61.9200 2.9757 1.0000
61.9300 2.9936 1.0000
61.9400 3.0081 1.0000
61.9500 4.9229 1.0000
61.9600 4.9958 1.0000
61.9700 1.9915 1.0000
61.9800 4.0056 1.0000
61.9900 2.9906 1.0000
62.0000 3.9605 1.0000
62.0100 2.0119 1.0000
62.0200 0.9932 1.0000
62.0300 2.0053 1.0000
62.0400 5.0253 1.0000
62.0500 2.0090 1.0000
62.0600 2.9944 1.0000
62.0700 1.0004 1.0000
62.0800 2.9881 1.0000
62.0900 2.0014 1.0000
62.1000 2.0006 1.0000
62.1100 5.9419 1.0000
62.1200 3.9973 1.0000
62.1300 0.9792 1.0000
62.1400 0.0000 1.0000
62.1500 0.9934 1.0000
62.1600 4.9748 1.0000
62.1700 1.9957 1.0000
62.1800 0.9919 1.0000
62.1900 3.9686 1.0000
62.2000 1.9790 1.0000
62.2100 0.9848 1.0000
62.2200 3.0384 1.0000
62.2300 2.0129 1.0000
62.2400 0.9531 1.0000
62.2500 2.9814 1.0000
62.2600 0.9802 1.0000
62.2700 1.0013 1.0000
62.2800 0.9824 1.0000
62.2900 5.9693 1.0000
62.3000 3.9784 1.0000
62.3100 2.0071 1.0000
62.3200 3.0056 1.0000
62.3300 5.9667 1.0000
62.3400 1.9959 1.0000
62.3500 3.9845 1.0000
62.3600 3.9854 1.0000
62.3700 5.9711 1.0000
62.3800 0.9972 1.0000
62.3900 2.0204 1.0000
62.4000 2.9834 1.0000
62.4100 0.9914 1.0000
62.4200 4.1933 1.0000
62.4300 1.9890 1.0000
62.4400 0.9918 1.0000
62.4500 1.9961 1.0000
62.4600 1.9793 1.0000
62.4700 0.0000 1.0000
62.4800 1.9755 1.0000
62.4900 4.9449 1.0000
62.5000 3.9732 1.0000
62.5100 2.9665 1.0000
62.5200 0.0000 1.0000
62.5300 2.0166 1.0000
62.5400 0.0000 1.0000
62.5500 2.0174 1.0000
62.5600 1.9823 1.0000
62.5700 6.0292 1.0000
62.5800 0.9873 1.0000
62.5900 1.9999 1.0000
62.6000 0.9629 1.0000
62.6100 0.9862 1.0000
62.6200 2.0117 1.0000
62.6300 3.9769 1.0000
62.6400 1.9980 1.0000
62.6500 0.9958 1.0000
62.6600 2.9568 1.0000
62.6700 2.9829 1.0000
62.6800 1.0100 1.0000
62.6900 0.9885 1.0000
62.7000 5.9718 1.0000
62.7100 3.9317 1.0000
62.7200 0.9857 1.0000
62.7300 0.9978 1.0000
62.7400 3.0274 1.0000
62.7500 1.9934 1.0000
62.7600 5.9259 1.0000
62.7700 0.9774 1.0000
62.7800 1.0294 1.0000
62.7900 1.9909 1.0000
62.8000 0.9835 1.0000
62.8100 0.9865 1.0000
62.8200 5.9611 1.0000
62.8300 0.9890 1.0000
62.8400 0.9890 1.0000
62.8500 0.0000 1.0000
62.8600 2.9896 1.0000
62.8700 2.9978 1.0000
62.8800 0.0000 1.0000
62.8900 1.9963 1.0000
62.9000 3.9763 1.0000
62.9100 2.9762 1.0000
62.9200 3.1552 1.0000
62.9300 2.0025 1.0000
62.9400 3.9593 1.0000
62.9500 4.9919 1.0000
62.9600 2.9778 1.0000
62.9700 0.9883 1.0000
62.9800 2.9984 1.0000
62.9900 1.9699 1.0000
63.0000 1.9777 1.0000
63.0100 2.1263 1.0000
63.0200 0.0000 1.0000
63.0300 1.9741 1.0000
63.0400 2.0280 1.0000
63.0500 3.0420 1.0000
63.0600 1.9932 1.0000
63.0700 1.9413 1.0000
63.0800 0.0000 1.0000
63.0900 4.0030 1.0000
63.1000 6.9370 1.0000
63.1100 0.0000 1.0000
63.1200 3.9615 1.0000
63.1300 0.9891 1.0000
63.1400 2.9442 1.0000
63.1500 4.9327 1.0000
63.1600 2.9906 1.0000
63.1700 3.9670 1.0000
63.1800 1.9710 1.0000
63.1900 0.9919 1.0000
63.2000 1.0089 1.0000
63.2100 5.9797 1.0000
63.2200 2.9604 1.0000
63.2300 4.0245 1.0000
63.2400 2.9826 1.0000
63.2500 2.9587 1.0000
63.2600 2.0062 1.0000
63.2700 1.9975 1.0000
63.2800 1.9845 1.0000
63.2900 4.9429 1.0000
63.3000 1.9951 1.0000
63.3100 2.9980 1.0000
63.3200 5.9694 1.0000
63.3300 2.9880 1.0000
63.3400 3.0299 1.0000
63.3500 2.0188 1.0000
63.3600 2.0034 1.0000
63.3700 6.9989 1.0000
63.3800 4.9759 1.0000
63.3900 0.9802 1.0000
63.4000 5.9885 1.0000
63.4100 5.9441 1.0000
63.4200 0.9995 1.0000
63.4300 1.0135 1.0000
63.4400 1.9667 1.0000
63.4500 1.9863 1.0000
63.4600 2.9912 1.0000
63.4700 1.9834 1.0000
63.4800 3.9880 1.0000
63.4900 5.9441 1.0000
63.5000 0.0000 1.0000
63.5100 1.9773 1.0000
63.5200 2.9584 1.0000
63.5300 3.9965 1.0000
63.5400 1.9956 1.0000
63.5500 1.9758 1.0000
63.5600 3.9741 1.0000
63.5700 0.9788 1.0000
63.5800 1.9847 1.0000
63.5900 2.9808 1.0000
63.6000 0.9791 1.0000
63.6100 5.9500 1.0000
63.6200 1.0039 1.0000
63.6300 3.0042 1.0000
63.6400 4.9748 1.0000
63.6500 2.0090 1.0000
63.6600 1.9987 1.0000
63.6700 3.9875 1.0000
63.6800 3.0015 1.0000
63.6900 1.0092 1.0000
63.7000 1.9975 1.0000
63.7100 2.9968 1.0000
63.7200 3.0405 1.0000
63.7300 4.9542 1.0000
63.7400 0.0000 1.0000
63.7500 2.9702 1.0000
63.7600 4.9384 1.0000
63.7700 1.9748 1.0000
63.7800 2.0022 1.0000
63.7900 2.9663 1.0000
63.8000 2.0170 1.0000
63.8100 1.9712 1.0000
63.8200 0.0000 1.0000
63.8300 2.9562 1.0000
63.8400 7.9189 1.0000
63.8500 3.1239 1.0000
63.8600 1.9960 1.0000
63.8700 0.0000 1.0000
63.8800 1.9718 1.0000
63.8900 3.9862 1.0000
63.9000 2.9829 1.0000
63.9100 0.9914 1.0000
63.9200 5.9437 1.0000
63.9300 2.9850 1.0000
63.9400 5.9740 1.0000
63.9500 4.9771 1.0000
63.9600 1.0048 1.0000
63.9700 6.9886 1.0000
63.9800 1.9583 1.0000
63.9900 4.0073 1.0000
64.0000 1.9735 1.0000
64.0100 0.0000 1.0000
64.0200 1.0057 1.0000
64.0300 1.9896 1.0000
64.0400 3.0063 1.0000
64.0500 7.9323 1.0000
64.0600 0.9965 1.0000
64.0700 6.9742 1.0000
64.0800 1.9334 1.0000
64.0900 1.9897 1.0000
64.1000 5.9194 1.0000
64.1100 2.9825 1.0000
64.1200 3.2883 1.0000
64.1300 6.0174 1.0000
64.1400 3.9695 1.0000
64.1500 3.9623 1.0000
64.1600 3.9587 1.0000
64.1700 2.9521 1.0000
64.1800 3.0335 1.0000
64.1900 4.9885 1.0000
64.2000 3.9955 1.0000
64.2100 2.9994 1.0000
64.2200 1.0029 1.0000
64.2300 1.9995 1.0000
64.2400 2.9309 1.0000
64.2500 0.0000 1.0000
64.2600 0.9870 1.0000
64.2700 3.9629 1.0000
64.2800 7.0601 1.0000
64.2900 1.0087 1.0000
64.3000 3.0560 1.0000
64.3100 1.9922 1.0000
64.3200 3.9685 1.0000
64.3300 4.0171 1.0000
64.3400 3.9939 1.0000
64.3500 3.9591 1.0000
64.3600 5.9569 1.0000
64.3700 4.0379 1.0000
64.3800 1.9475 1.0000
64.3900 6.9386 1.0000
64.4000 4.0110 1.0000
64.4100 3.9908 1.0000
64.4200 7.9359 1.0000
64.4300 3.9769 1.0000
64.4400 1.9781 1.0000
64.4500 6.9714 1.0000
64.4600 7.9039 1.0000
64.4700 6.0243 1.0000
64.4800 2.9925 1.0000
64.4900 3.0056 1.0000
64.5000 2.9316 1.0000
64.5100 8.0047 1.0000
64.5200 7.9504 1.0000
64.5300 5.0123 1.0000
64.5400 2.9589 1.0000
64.5500 2.9906 1.0000
64.5600 4.0345 1.0000
64.5700 5.0097 1.0000
64.5800 4.9973 1.0000
64.5900 7.9163 1.0000
64.6000 5.0322 1.0000
64.6100 4.9283 1.0000
64.6200 6.0753 1.0000
64.6300 0.9935 1.0000
64.6400 4.9591 1.0000
64.6500 3.0046 1.0000
64.6600 7.0163 1.0000
64.6700 10.0318 1.0000
64.6800 2.9606 1.0000
64.6900 3.9664 1.0000
64.7000 5.3070 1.0000
64.7100 6.9560 1.0000
64.7200 5.0284 1.0000
64.7300 2.9871 1.0000
64.7400 6.0043 1.0000
64.7500 8.1256 1.0000
64.7600 6.9969 1.0000
64.7700 7.9836 1.0000
64.7800 3.9915 1.0000
64.7900 4.9178 1.0000
64.8000 3.0524 1.0000
64.8100 5.9819 1.0000
64.8200 4.9576 1.0000
64.8300 4.9832 1.0000
64.8400 3.9631 1.0000
64.8500 4.0111 1.0000
64.8600 6.9569 1.0000
64.8700 6.0032 1.0000
64.8800 6.9879 1.0000
64.8900 8.9538 1.0000
64.9000 2.9948 1.0000
64.9100 2.9703 1.0000
64.9200 4.0124 1.0000
64.9300 5.0237 1.0000
64.9400 1.9759 1.0000
64.9500 6.0134 1.0000
64.9600 5.0029 1.0000
64.9700 0.9977 1.0000
64.9800 4.9952 1.0000
64.9900 6.9325 1.0000
65.0000 5.9214 1.0000
65.0100 2.9592 1.0000
65.0200 7.1225 1.0000
65.0300 4.0243 1.0000
65.0400 6.9615 1.0000
65.0500 4.9990 1.0000
65.0600 4.9742 1.0000
65.0700 1.9720 1.0000
65.0800 7.9829 1.0000
65.0900 1.9825 1.0000
65.1000 8.9685 1.0000
65.1100 3.0181 1.0000
65.1200 4.9288 1.0000
65.1300 6.9505 1.0000
65.1400 6.9356 1.0000
65.1500 7.9545 1.0000
65.1600 1.9885 1.0000
65.1700 7.9048 1.0000
65.1800 13.0219 1.0000
65.1900 6.9594 1.0000
65.2000 8.3040 1.0000
65.2100 7.0008 1.0000
65.2200 10.9580 1.0000
65.2300 8.9626 1.0000
65.2400 8.9300 1.0000
65.2500 11.0359 1.0000
65.2600 7.9762 1.0000
65.2700 5.9955 1.0000
65.2800 9.9310 1.0000
65.2900 5.9675 1.0000
65.3000 10.8604 1.0000
65.3100 3.0099 1.0000
65.3200 6.9816 1.0000
65.3300 9.8867 1.0000
65.3400 5.9607 1.0000
65.3500 3.9271 1.0000
65.3600 11.9411 1.0000
65.3700 14.1148 1.0000
65.3800 11.9059 1.0000
65.3900 14.8923 1.0000
65.4000 12.9946 1.0000
65.4100 12.9568 1.0000
65.4200 5.9085 1.0000
65.4300 11.9099 1.0000
65.4400 9.0685 1.0000
65.4500 12.0681 1.0000
65.4600 8.9929 1.0000
65.4700 14.0826 1.0000
65.4800 13.9197 1.0000
65.4900 15.9139 1.0000
65.5000 14.8868 1.0000
65.5100 15.0149 1.0000
65.5200 7.9507 1.0000
65.5300 16.9057 1.0000
65.5400 11.9914 1.0000
65.5500 10.9827 1.0000
65.5600 15.9818 1.0000
65.5700 15.0356 1.0000
65.5800 19.2547 1.0000
65.5900 17.8550 1.0000
65.6000 21.1533 1.0000
65.6100 19.8802 1.0000
65.6200 20.1161 1.0000
65.6300 15.2305 1.0000
65.6400 17.8034 1.0000
65.6500 22.0731 1.0000
65.6600 21.9561 1.0000
65.6700 23.8444 1.0000
65.6800 16.9343 1.0000
65.6900 26.8899 1.0000
65.7000 24.8681 1.0000
65.7100 17.8681 1.0000
65.7200 25.9108 1.0000
65.7300 26.1760 1.0000
65.7400 30.4314 1.0000
65.7500 22.8944 1.0000
65.7600 18.9084 1.0000
65.7700 29.0953 1.0000
65.7800 26.9652 1.0000
65.7900 21.5063 1.0000
65.8000 30.0279 1.0000
65.8100 26.9672 1.0000
65.8200 27.7810 1.0000
65.8300 26.0606 1.0000
65.8400 41.2079 1.0000
65.8500 38.9919 1.0000
65.8600 41.6963 1.0000
65.8700 39.8831 1.0000
65.8800 36.7059 1.0000
65.8900 25.8538 1.0000
65.9000 49.7319 1.0000
65.9100 31.8098 1.0000
65.9200 46.9446 1.0000
65.9300 33.0887 1.0000
65.9400 47.7751 1.0000
65.9500 50.9765 1.0000
65.9600 61.3732 1.0000
65.9700 37.9062 1.0000
65.9800 56.0090 1.0000
65.9900 60.0554 1.0000
66.0000 66.0928 1.0000
66.0100 64.2425 1.0000
66.0200 56.2162 1.0000
66.0300 90.8039 1.0000
66.0400 74.7560 1.0000
66.0500 77.6579 1.0000
66.0600 87.8283 1.0000
66.0700 114.8248 1.0000
66.0800 137.2661 1.0000
66.0900 129.8134 1.0000
66.1000 157.0744 1.0000
66.1100 213.9796 1.0000
66.1200 257.6725 1.0000
66.1300 323.9370 1.0000
66.1400 423.9817 1.0000
66.1500 506.5851 1.0000
66.1600 688.2984 1.0000
66.1700 834.8708 1.0000
66.1800 1118.9803 1.0000
66.1900 1569.3760 1.0000
66.2000 2110.3171 1.0000
66.2100 2598.8149 1.0000
66.2200 4683.3467 1.0000
66.2300 7705.0352 1.0000
66.2400 7980.8789 1.0000
66.2500 8898.6709 1.0000
66.2600 8877.6377 1.0000
66.2700 6683.0640 1.0000
66.2800 4933.2173 1.0000
66.2900 5474.4897 1.0000
66.3000 6317.7969 1.0000
66.3100 4932.5762 1.0000
66.3200 2746.8457 1.0000
66.3300 1336.0194 1.0000
66.3400 618.6310 1.0000
66.3500 323.5070 1.0000
66.3600 208.7148 1.0000
66.3700 151.4246 1.0000
66.3800 126.2094 1.0000
66.3900 103.0964 1.0000
66.4000 93.9455 1.0000
66.4100 66.6679 1.0000
66.4200 59.9531 1.0000
66.4300 57.2909 1.0000
66.4400 43.2746 1.0000
66.4500 51.7908 1.0000
66.4600 41.0030 1.0000
66.4700 45.1584 1.0000
66.4800 32.0981 1.0000
66.4900 26.9630 1.0000
66.5000 33.8381 1.0000
66.5100 30.1752 1.0000
66.5200 37.1034 1.0000
66.5300 39.0209 1.0000
66.5400 24.9919 1.0000
66.5500 27.8835 1.0000
66.5600 30.7571 1.0000
66.5700 22.9379 1.0000
66.5800 23.0463 1.0000
66.5900 26.2482 1.0000
66.6000 14.9782 1.0000
66.6100 24.9024 1.0000
66.6200 19.0445 1.0000
66.6300 15.9112 1.0000
66.6400 23.8860 1.0000
66.6500 14.9258 1.0000
66.6600 23.9423 1.0000
66.6700 23.9576 1.0000
66.6800 27.9289 1.0000
66.6900 12.9214 1.0000
66.7000 11.9280 1.0000
66.7100 17.0060 1.0000
66.7200 10.0696 1.0000
66.7300 10.0135 1.0000
66.7400 13.8936 1.0000
66.7500 21.1535 1.0000
66.7600 14.1728 1.0000
66.7700 15.9514 1.0000
66.7800 10.9633 1.0000
66.7900 19.0595 1.0000
66.8000 10.9481 1.0000
66.8100 10.2589 1.0000
66.8200 10.9436 1.0000
66.8300 14.9353 1.0000
66.8400 10.9188 1.0000
66.8500 12.0270 1.0000
66.8600 14.9688 1.0000
66.8700 11.0167 1.0000
66.8800 6.0434 1.0000
66.8900 11.9649 1.0000
66.9000 8.9371 1.0000
66.9100 12.9278 1.0000
66.9200 7.9162 1.0000
66.9300 13.9515 1.0000
66.9400 13.9506 1.0000
66.9500 11.9761 1.0000
66.9600 11.9038 1.0000
66.9700 13.9101 1.0000
66.9800 12.9796 1.0000
66.9900 6.0048 1.0000
67.0000 11.8646 1.0000
67.0100 9.9681 1.0000
67.0200 13.0198 1.0000
67.0300 13.1098 1.0000
67.0400 2.9945 1.0000
67.0500 8.9472 1.0000
67.0600 8.2316 1.0000
67.0700 4.0222 1.0000
67.0800 4.0529 1.0000
67.0900 10.9833 1.0000
67.1000 14.8682 1.0000
67.1100 4.9543 1.0000
67.1200 5.9618 1.0000
67.1300 12.9121 1.0000
67.1400 9.0007 1.0000
67.1500 8.9086 1.0000
67.1600 10.3204 1.0000
67.1700 7.9658 1.0000
67.1800 9.0401 1.0000
67.1900 6.9582 1.0000
67.2000 4.9743 1.0000
67.2100 11.9777 1.0000
67.2200 3.0091 1.0000
67.2300 6.0381 1.0000
67.2400 8.8777 1.0000
67.2500 6.0075 1.0000
67.2600 8.0067 1.0000
67.2700 2.9796 1.0000
67.2800 5.0068 1.0000
67.2900 6.9662 1.0000
67.3000 8.9227 1.0000
67.3100 6.0115 1.0000
67.3200 7.9255 1.0000
67.3300 9.0393 1.0000
67.3400 6.9596 1.0000
67.3500 5.9685 1.0000
67.3600 2.9881 1.0000
67.3700 5.9612 1.0000
67.3800 7.9171 1.0000
67.3900 4.9644 1.0000
67.4000 3.9952 1.0000
67.4100 4.0514 1.0000
67.4200 1.9792 1.0000
67.4300 2.9828 1.0000
67.4400 7.9045 1.0000
67.4500 1.9899 1.0000
67.4600 7.9601 1.0000
67.4700 8.3111 1.0000
67.4800 4.0465 1.0000
67.4900 6.8796 1.0000
67.5000 4.0173 1.0000
67.5100 8.9909 1.0000
67.5200 6.9821 1.0000
67.5300 1.9639 1.0000
67.5400 3.9556 1.0000
67.5500 3.0211 1.0000
67.5600 7.0124 1.0000
67.5700 5.9260 1.0000
67.5800 3.0111 1.0000
67.5900 5.0056 1.0000
67.6000 9.9835 1.0000
67.6100 8.0851 1.0000
67.6200 5.9872 1.0000
67.6300 5.1255 1.0000
67.6400 4.9538 1.0000
67.6500 2.9862 1.0000
67.6600 7.9851 1.0000
67.6700 4.9641 1.0000
67.6800 1.9889 1.0000
67.6900 5.0140 1.0000
67.7000 2.9670 1.0000
67.7100 2.9832 1.0000
67.7200 3.0638 1.0000
67.7300 7.9650 1.0000
67.7400 5.9520 1.0000
67.7500 2.9991 1.0000
67.7600 5.9651 1.0000
67.7700 4.9818 1.0000
67.7800 4.9778 1.0000
67.7900 1.0028 1.0000
67.8000 7.1302 1.0000
67.8100 5.0016 1.0000
67.8200 6.9800 1.0000
67.8300 0.9866 1.0000
67.8400 6.9470 1.0000
67.8500 9.0085 1.0000
67.8600 5.0720 1.0000
67.8700 1.9769 1.0000
67.8800 3.9398 1.0000
67.8900 6.0136 1.0000
67.9000 6.0134 1.0000
67.9100 4.9884 1.0000
67.9200 3.9939 1.0000
67.9300 5.9314 1.0000
67.9400 6.9564 1.0000
67.9500 2.0176 1.0000
67.9600 4.9535 1.0000
67.9700 3.9699 1.0000
67.9800 5.9970 1.0000
67.9900 5.0443 1.0000
68.0000 1.0026 1.0000
68.0100 4.9517 1.0000
68.0200 2.9951 1.0000
68.0300 5.0091 1.0000
68.0400 9.0304 1.0000
68.0500 8.9970 1.0000
68.0600 4.0207 1.0000
68.0700 6.9171 1.0000
68.0800 2.9934 1.0000
68.0900 6.9366 1.0000
68.1000 4.9968 1.0000
68.1100 4.9567 1.0000
68.1200 3.9705 1.0000
68.1300 1.9882 1.0000
68.1400 3.0053 1.0000
68.1500 3.9458 1.0000
68.1600 1.9828 1.0000
68.1700 6.9714 1.0000
68.1800 3.9470 1.0000
68.1900 3.9781 1.0000
68.2000 5.0282 1.0000
68.2100 2.9821 1.0000
68.2200 6.9532 1.0000
68.2300 2.0028 1.0000
68.2400 3.9463 1.0000
68.2500 2.9682 1.0000
68.2600 3.9574 1.0000
68.2700 6.9757 1.0000
68.2800 0.9899 1.0000
68.2900 5.9601 1.0000
68.3000 1.9601 1.0000
68.3100 0.9978 1.0000
68.3200 4.9748 1.0000
68.3300 4.0085 1.0000
68.3400 4.9730 1.0000
68.3500 6.9671 1.0000
68.3600 3.9912 1.0000
68.3700 0.9875 1.0000
68.3800 3.9913 1.0000
68.3900 4.9754 1.0000
68.4000 2.9926 1.0000
68.4100 3.9648 1.0000
68.4200 4.0114 1.0000
68.4300 3.9569 1.0000
68.4400 2.0116 1.0000
68.4500 4.9415 1.0000
68.4600 3.9227 1.0000
68.4700 2.9626 1.0000
68.4800 4.0518 1.0000
68.4900 2.0063 1.0000
68.5000 4.0200 1.0000
68.5100 9.9155 1.0000
68.5200 0.9906 1.0000
68.5300 8.9908 1.0000
68.5400 6.0034 1.0000
68.5500 4.0035 1.0000
68.5600 4.9664 1.0000
68.5700 2.0314 1.0000
68.5800 4.9982 1.0000
68.5900 6.9159 1.0000
68.6000 0.9965 1.0000
68.6100 1.9866 1.0000
68.6200 3.9846 1.0000
68.6300 0.9952 1.0000
68.6400 3.9944 1.0000
68.6500 5.9599 1.0000
68.6600 2.9862 1.0000
68.6700 5.9587 1.0000
68.6800 3.0192 1.0000
68.6900 1.0026 1.0000
68.7000 2.9600 1.0000
68.7100 0.9792 1.0000
68.7200 3.9839 1.0000
68.7300 3.0523 1.0000
68.7400 3.9203 1.0000
68.7500 1.9488 1.0000
68.7600 1.9997 1.0000
68.7700 3.9757 1.0000
68.7800 2.9424 1.0000
68.7900 2.9931 1.0000
68.8000 4.8987 1.0000
68.8100 0.9716 1.0000
68.8200 2.9547 1.0000
68.8300 2.9629 1.0000
68.8400 2.9902 1.0000
68.8500 4.0257 1.0000
68.8600 1.0049 1.0000
68.8700 3.9379 1.0000
68.8800 4.9498 1.0000
68.8900 3.9545 1.0000
68.9000 6.0197 1.0000
68.9100 1.9878 1.0000
68.9200 3.9779 1.0000
68.9300 2.9990 1.0000
68.9400 2.9961 1.0000
68.9500 5.0158 1.0000
68.9600 3.9193 1.0000
68.9700 2.9651 1.0000
68.9800 5.9684 1.0000
68.9900 0.0000 1.0000
69.0000 3.9649 1.0000
69.0100 2.9605 1.0000
69.0200 4.9589 1.0000
69.0300 3.0053 1.0000
69.0400 4.9809 1.0000
69.0500 1.9909 1.0000
69.0600 4.9950 1.0000
69.0700 0.0000 1.0000
69.0800 0.9938 1.0000
69.0900 3.9792 1.0000
69.1000 2.9928 1.0000
69.1100 5.9638 1.0000
69.1200 0.9918 1.0000
69.1300 3.0104 1.0000
69.1400 0.0000 1.0000
69.1500 2.0368 1.0000
69.1600 1.9888 1.0000
69.1700 2.0036 1.0000
69.1800 4.9769 1.0000
69.1900 2.9535 1.0000
69.2000 4.0022 1.0000
69.2100 1.9838 1.0000
69.2200 5.9381 1.0000
69.2300 2.9922 1.0000
69.2400 3.9225 1.0000
69.2500 8.9609 1.0000
69.2600 1.9516 1.0000
69.2700 5.0182 1.0000
69.2800 0.0000 1.0000
69.2900 0.0000 1.0000
69.3000 3.9216 1.0000
69.3100 4.9575 1.0000
69.3200 1.9847 1.0000
69.3300 1.9959 1.0000
69.3400 4.9614 1.0000
69.3500 1.0092 1.0000
69.3600 3.0151 1.0000
69.3700 4.9892 1.0000
69.3800 2.9980 1.0000
69.3900 2.0214 1.0000
69.4000 4.0015 1.0000
69.4100 2.9821 1.0000
69.4200 2.9849 1.0000
69.4300 5.0515 1.0000
69.4400 3.0003 1.0000
69.4500 3.9590 1.0000
69.4600 2.0095 1.0000
69.4700 0.0000 1.0000
69.4800 0.9894 1.0000
69.4900 3.9780 1.0000
69.5000 2.9830 1.0000
69.5100 0.0000 1.0000
69.5200 3.9501 1.0000
69.5300 3.0090 1.0000
69.5400 2.0151 1.0000
69.5500 1.9777 1.0000
69.5600 3.9784 1.0000
69.5700 2.9986 1.0000
69.5800 2.9708 1.0000
69.5900 0.0000 1.0000
69.6000 2.9775 1.0000
69.6100 4.9559 1.0000
69.6200 1.0226 1.0000
69.6300 6.0135 1.0000
69.6400 2.0053 1.0000
69.6500 2.0215 1.0000
69.6600 0.0000 1.0000
69.6700 1.9715 1.0000
69.6800 1.9509 1.0000
69.6900 2.0006 1.0000
69.7000 1.0037 1.0000
69.7100 1.0015 1.0000
69.7200 1.9846 1.0000
69.7300 4.9521 1.0000
69.7400 3.9628 1.0000
69.7500 0.9794 1.0000
69.7600 6.0185 1.0000
69.7700 0.9790 1.0000
69.7800 1.0208 1.0000
69.7900 1.9838 1.0000
69.8000 4.9648 1.0000
69.8100 2.9634 1.0000
69.8200 1.9553 1.0000
69.8300 5.0075 1.0000
69.8400 1.9953 1.0000
69.8500 1.9990 1.0000
69.8600 0.9802 1.0000
69.8700 0.9957 1.0000
69.8800 1.9767 1.0000
69.8900 0.0000 1.0000
69.9000 3.0042 1.0000
69.9100 3.0184 1.0000
69.9200 2.9699 1.0000
69.9300 0.9956 1.0000
69.9400 1.0072 1.0000
69.9500 2.0005 1.0000
69.9600 1.0356 1.0000
69.9700 2.9913 1.0000
69.9800 4.9814 1.0000
69.9900 0.9943 1.0000
70.0000 4.9438 1.0000
70.0100 3.9719 1.0000
70.0200 1.9908 1.0000
70.0300 3.9527 1.0000
70.0400 0.0000 1.0000
70.0500 2.9731 1.0000
70.0600 0.0000 1.0000
70.0700 2.0149 1.0000
70.0800 3.9435 1.0000
70.0900 1.9979 1.0000
70.1000 3.9361 1.0000
70.1100 1.9828 1.0000
70.1200 4.9574 1.0000
70.1300 0.9888 1.0000
70.1400 1.9955 1.0000
70.1500 1.9851 1.0000
70.1600 0.9766 1.0000
70.1700 2.9825 1.0000
70.1800 1.0054 1.0000
70.1900 0.9984 1.0000
70.2000 5.9837 1.0000
70.2100 2.9885 1.0000
70.2200 0.0000 1.0000
70.2300 0.0000 1.0000
70.2400 3.0137 1.0000
70.2500 4.9473 1.0000
70.2600 1.9706 1.0000
70.2700 3.9649 1.0000
70.2800 1.0159 1.0000
70.2900 1.9638 1.0000
70.3000 3.0108 1.0000
70.3100 2.9859 1.0000
70.3200 2.9523 1.0000
70.3300 0.0000 1.0000
70.3400 2.9684 1.0000
70.3500 0.9890 1.0000
70.3600 7.9324 1.0000
70.3700 0.0000 1.0000
70.3800 3.9871 1.0000
70.3900 2.9304 1.0000
70.4000 2.9879 1.0000
70.4100 3.9733 1.0000
70.4200 0.9804 1.0000
70.4300 3.0017 1.0000
70.4400 1.0237 1.0000
70.4500 1.9938 1.0000
70.4600 0.0000 1.0000
70.4700 4.0249 1.0000
70.4800 0.9782 1.0000
70.4900 1.9951 1.0000
70.5000 1.9778 1.0000
70.5100 3.9470 1.0000
70.5200 0.9937 1.0000
70.5300 1.9788 1.0000
70.5400 3.9867 1.0000
70.5500 3.0044 1.0000
70.5600 0.9794 1.0000
70.5700 6.0279 1.0000
70.5800 2.9817 1.0000
70.5900 4.9423 1.0000
70.6000 0.0000 1.0000
70.6100 1.9602 1.0000
70.6200 1.9688 1.0000
70.6300 3.9732 1.0000
70.6400 6.9657 1.0000
70.6500 5.0007 1.0000
70.6600 1.9850 1.0000
70.6700 1.9928 1.0000
70.6800 2.0117 1.0000
70.6900 0.0000 1.0000
70.7000 3.9252 1.0000
70.7100 0.9807 1.0000
70.7200 1.9741 1.0000
70.7300 1.0136 1.0000
70.7400 0.9943 1.0000
70.7500 1.9963 1.0000
70.7600 1.9667 1.0000
70.7700 3.0092 1.0000
70.7800 3.9933 1.0000
70.7900 2.9697 1.0000
70.8000 3.9965 1.0000
70.8100 0.9948 1.0000
70.8200 1.9239 1.0000
70.8300 3.0035 1.0000
70.8400 3.9874 1.0000
70.8500 0.9890 1.0000
70.8600 0.9992 1.0000
70.8700 4.9511 1.0000
70.8800 0.0000 1.0000
70.8900 1.0144 1.0000
70.9000 6.0017 1.0000
70.9100 0.9918 1.0000
70.9200 1.0282 1.0000
70.9300 4.9582 1.0000
70.9400 3.0510 1.0000
70.9500 4.0214 1.0000
70.9600 1.9696 1.0000
70.9700 2.9855 1.0000
70.9800 3.0197 1.0000
70.9900 4.0318 1.0000
71.0000 2.9674 1.0000
71.0100 3.9612 1.0000
71.0200 0.9980 1.0000
71.0300 1.0018 1.0000
71.0400 1.0019 1.0000
71.0500 3.0036 1.0000
71.0600 2.9827 1.0000
71.0700 0.9853 1.0000
71.0800 1.0059 1.0000
71.0900 2.9996 1.0000
71.1000 3.9954 1.0000
71.1100 3.9496 1.0000
71.1200 2.9983 1.0000
71.1300 3.0279 1.0000
71.1400 4.0078 1.0000
71.1500 2.9663 1.0000
71.1600 5.9491 1.0000
71.1700 4.9520 1.0000
71.1800 1.9917 1.0000
71.1900 2.9970 1.0000
71.2000 2.9684 1.0000
71.2100 0.0000 1.0000
71.2200 0.9886 1.0000
71.2300 2.9456 1.0000
71.2400 2.9376 1.0000
71.2500 1.9597 1.0000
71.2600 3.9564 1.0000
71.2700 0.9816 1.0000
71.2800 0.0000 1.0000
71.2900 3.9940 1.0000
71.3000 0.0000 1.0000
71.3100 5.0420 1.0000
71.3200 0.0000 1.0000
71.3300 1.9984 1.0000
71.3400 0.9924 1.0000
71.3500 3.9573 1.0000
71.3600 3.9393 1.0000
71.3700 1.9396 1.0000
71.3800 2.0191 1.0000
71.3900 2.9915 1.0000
71.4000 2.9857 1.0000
71.4100 1.0110 1.0000
71.4200 0.9969 1.0000
71.4300 3.0361 1.0000
71.4400 5.9478 1.0000
71.4500 3.0298 1.0000
71.4600 1.0066 1.0000
71.4700 2.9881 1.0000
71.4800 2.9478 1.0000
71.4900 1.9606 1.0000
71.5000 4.0392 1.0000
71.5100 4.0281 1.0000
71.5200 0.0000 1.0000
71.5300 1.0008 1.0000
71.5400 1.9814 1.0000
71.5500 1.9648 1.0000
71.5600 1.2991 1.0000
71.5700 2.9794 1.0000
71.5800 0.9952 1.0000
71.5900 4.9793 1.0000
71.6000 3.9517 1.0000
71.6100 0.9979 1.0000
71.6200 1.0172 1.0000
71.6300 5.0268 1.0000
71.6400 2.9573 1.0000
71.6500 0.9774 1.0000
71.6600 2.9938 1.0000
71.6700 2.9662 1.0000
71.6800 3.0005 1.0000
71.6900 1.9730 1.0000
71.7000 4.9902 1.0000
71.7100 5.0454 1.0000
71.7200 0.9901 1.0000
71.7300 0.0000 1.0000
71.7400 1.0082 1.0000
71.7500 5.9374 1.0000
71.7600 0.9781 1.0000
71.7700 4.9443 1.0000
71.7800 5.0013 1.0000
71.7900 2.0256 1.0000
71.8000 0.9716 1.0000
71.8100 2.9730 1.0000
71.8200 2.0000 1.0000
71.8300 0.9783 1.0000
71.8400 5.9104 1.0000
71.8500 3.1401 1.0000
71.8600 3.0156 1.0000
71.8700 1.9930 1.0000
71.8800 0.9829 1.0000
71.8900 2.9745 1.0000
71.9000 5.9597 1.0000
71.9100 0.9871 1.0000
71.9200 0.0000 1.0000
71.9300 2.9633 1.0000
71.9400 1.9648 1.0000
71.9500 0.9736 1.0000
71.9600 1.0045 1.0000
71.9700 2.9718 1.0000
71.9800 0.9979 1.0000
71.9900 2.0267 1.0000
72.0000 3.0289 1.0000
72.0100 1.0300 1.0000
72.0200 1.9637 1.0000
72.0300 2.9613 1.0000
72.0400 3.0231 1.0000
72.0500 4.0256 1.0000
72.0600 2.9579 1.0000
72.0700 2.9832 1.0000
72.0800 4.9695 1.0000
72.0900 3.0100 1.0000
72.1000 1.9959 1.0000
72.1100 3.0155 1.0000
72.1200 0.9926 1.0000
72.1300 2.9758 1.0000
72.1400 5.9090 1.0000
72.1500 1.9883 1.0000
72.1600 3.9773 1.0000
72.1700 0.9839 1.0000
72.1800 2.9933 1.0000
72.1900 3.0101 1.0000
72.2000 2.9830 1.0000
72.2100 0.9794 1.0000
72.2200 4.0062 1.0000
72.2300 3.0450 1.0000
72.2400 0.9973 1.0000
72.2500 1.9586 1.0000
72.2600 1.0009 1.0000
72.2700 0.9928 1.0000
72.2800 3.0080 1.0000
72.2900 2.0073 1.0000
72.3000 0.0000 1.0000
72.3100 2.0080 1.0000
72.3200 2.0214 1.0000
72.3300 3.0003 1.0000
72.3400 7.8988 1.0000
72.3500 1.9885 1.0000
72.3600 2.9587 1.0000
72.3700 3.9555 1.0000
72.3800 0.9711 1.0000
72.3900 1.9811 1.0000
72.4000 3.0019 1.0000
72.4100 1.0011 1.0000
72.4200 1.9798 1.0000
72.4300 6.1261 1.0000
72.4400 2.9965 1.0000
72.4500 1.9839 1.0000
72.4600 1.9788 1.0000
72.4700 2.0095 1.0000
72.4800 4.9542 1.0000
72.4900 2.0065 1.0000
72.5000 0.0000 1.0000
72.5100 3.9523 1.0000
72.5200 2.0051 1.0000
72.5300 0.9907 1.0000
72.5400 1.9611 1.0000
72.5500 1.9645 1.0000
72.5600 1.9937 1.0000
72.5700 1.0149 1.0000
72.5800 5.0258 1.0000
72.5900 3.9305 1.0000
72.6000 3.0122 1.0000
72.6100 5.9939 1.0000
72.6200 6.9655 1.0000
72.6300 4.9512 1.0000
72.6400 0.9880 1.0000
72.6500 0.9835 1.0000
72.6600 4.0740 1.0000
72.6700 2.9727 1.0000
72.6800 2.0019 1.0000
72.6900 2.0022 1.0000
72.7000 0.9870 1.0000
72.7100 4.9609 1.0000
72.7200 2.9936 1.0000
72.7300 0.0000 1.0000
72.7400 1.0186 1.0000
72.7500 0.9873 1.0000
72.7600 0.9862 1.0000
72.7700 0.0000 1.0000
72.7800 0.9895 1.0000
72.7900 0.0000 1.0000
72.8000 1.0109 1.0000
72.8100 0.9886 1.0000
72.8200 3.0271 1.0000
72.8300 1.9879 1.0000
72.8400 0.0000 1.0000
72.8500 0.9914 1.0000
72.8600 1.9865 1.0000
72.8700 2.0067 1.0000
72.8800 1.0171 1.0000
72.8900 3.9477 1.0000
72.9000 1.9692 1.0000
72.9100 2.9793 1.0000
72.9200 1.0178 1.0000
72.9300 2.9551 1.0000
72.9400 1.9621 1.0000
72.9500 1.9989 1.0000
72.9600 1.9674 1.0000
72.9700 2.0104 1.0000
72.9800 5.9152 1.0000
72.9900 1.9895 1.0000
73.0000 2.9926 1.0000
73.0100 2.9877 1.0000
73.0200 4.0667 1.0000
73.0300 1.9804 1.0000
73.0400 1.9763 1.0000
73.0500 1.9745 1.0000
73.0600 4.3295 1.0000
73.0700 1.9869 1.0000
73.0800 1.9968 1.0000
73.0900 4.0103 1.0000
73.1000 0.0000 1.0000
73.1100 0.9774 1.0000
73.1200 2.0029 1.0000
73.1300 2.9666 1.0000
73.1400 6.0398 1.0000
73.1500 1.9725 1.0000
73.1600 3.9884 1.0000
73.1700 4.9838 1.0000
73.1800 2.0096 1.0000
73.1900 2.9870 1.0000
73.2000 0.9701 1.0000
73.2100 3.9632 1.0000
73.2200 0.9866 1.0000
73.2300 1.9775 1.0000
73.2400 1.9769 1.0000
73.2500 0.9794 1.0000
73.2600 1.0002 1.0000
73.2700 0.0000 1.0000
73.2800 1.9998 1.0000
73.2900 1.9864 1.0000
73.3000 0.9967 1.0000
73.3100 0.0000 1.0000
73.3200 0.0000 1.0000
73.3300 4.9476 1.0000
73.3400 2.1453 1.0000
73.3500 0.0000 1.0000
73.3600 3.9507 1.0000
73.3700 1.9588 1.0000
73.3800 3.9539 1.0000
73.3900 2.9829 1.0000
73.4000 1.0055 1.0000
73.4100 1.9893 1.0000
73.4200 3.9824 1.0000
73.4300 5.9643 1.0000
73.4400 0.9968 1.0000
73.4500 0.9911 1.0000
73.4600 0.0000 1.0000
73.4700 0.0000 1.0000
73.4800 1.0021 1.0000
73.4900 1.9799 1.0000
73.5000 0.9899 1.0000
73.5100 3.9700 1.0000
73.5200 7.0066 1.0000
73.5300 0.0000 1.0000
73.5400 4.9307 1.0000
73.5500 3.9723 1.0000
73.5600 0.0000 1.0000
73.5700 3.9564 1.0000
73.5800 0.0000 1.0000
73.5900 0.9922 1.0000
73.6000 0.9937 1.0000
73.6100 2.9976 1.0000
73.6200 0.9907 1.0000
73.6300 2.0051 1.0000
73.6400 1.9648 1.0000
73.6500 0.9824 1.0000
73.6600 2.0060 1.0000
73.6700 0.0000 1.0000
73.6800 4.9794 1.0000
73.6900 1.0092 1.0000
73.7000 0.9816 1.0000
73.7100 0.0000 1.0000
73.7200 0.9818 1.0000
73.7300 1.0156 1.0000
73.7400 3.9533 1.0000
73.7500 3.9635 1.0000
73.7600 2.9492 1.0000
73.7700 0.9800 1.0000
73.7800 1.9725 1.0000
73.7900 0.0000 1.0000
73.8000 0.0000 1.0000
73.8100 4.0168 1.0000
73.8200 3.9448 1.0000
73.8300 4.0120 1.0000
73.8400 3.0192 1.0000
73.8500 0.9928 1.0000
73.8600 2.0129 1.0000
73.8700 3.0060 1.0000
73.8800 2.0150 1.0000
73.8900 2.0053 1.0000
73.9000 1.9818 1.0000
73.9100 1.9543 1.0000
73.9200 1.9679 1.0000
73.9300 0.0000 1.0000
73.9400 4.0138 1.0000
73.9500 4.0238 1.0000
73.9600 6.9279 1.0000
73.9700 3.9806 1.0000
73.9800 2.9568 1.0000
73.9900 2.0367 1.0000
74.0000 1.0171 1.0000
74.0100 2.9882 1.0000
74.0200 2.9677 1.0000
74.0300 1.9572 1.0000
74.0400 2.9970 1.0000
74.0500 3.9889 1.0000
74.0600 4.0014 1.0000
74.0700 1.9910 1.0000
74.0800 3.9539 1.0000
74.0900 3.9920 1.0000
74.1000 2.0030 1.0000
74.1100 1.9932 1.0000
74.1200 1.0118 1.0000
74.1300 0.9728 1.0000
74.1400 1.9990 1.0000
74.1500 3.9681 1.0000
74.1600 1.9826 1.0000
74.1700 2.9818 1.0000
74.1800 1.9894 1.0000
74.1900 3.0060 1.0000
74.2000 3.9847 1.0000
74.2100 1.9775 1.0000
74.2200 1.0175 1.0000
74.2300 4.9735 1.0000
74.2400 2.9637 1.0000
74.2500 1.9729 1.0000
74.2600 2.9653 1.0000
74.2700 3.9894 1.0000
74.2800 2.9810 1.0000
74.2900 2.9750 1.0000
74.3000 1.9598 1.0000
74.3100 1.9572 1.0000
74.3200 1.9925 1.0000
74.3300 1.9870 1.0000
74.3400 1.9519 1.0000
74.3500 2.9708 1.0000
74.3600 4.9710 1.0000
74.3700 1.0312 1.0000
74.3800 0.0000 1.0000
74.3900 0.0000 1.0000
74.4000 0.0000 1.0000
74.4100 0.9965 1.0000
74.4200 1.0008 1.0000
74.4300 3.0375 1.0000
74.4400 2.9985 1.0000
74.4500 1.9864 1.0000
74.4600 2.0120 1.0000
74.4700 3.0209 1.0000
74.4800 0.9889 1.0000
74.4900 2.9706 1.0000
74.5000 1.9806 1.0000
74.5100 2.9700 1.0000
74.5200 2.9891 1.0000
74.5300 1.9732 1.0000
74.5400 1.9541 1.0000
74.5500 3.9848 1.0000
74.5600 5.9747 1.0000
74.5700 2.0469 1.0000
74.5800 3.9438 1.0000
74.5900 3.9507 1.0000
74.6000 0.9826 1.0000
74.6100 1.9530 1.0000
74.6200 2.9887 1.0000
74.6300 1.0021 1.0000
74.6400 2.0413 1.0000
74.6500 1.9716 1.0000
74.6600 1.9827 1.0000
74.6700 0.0000 1.0000
74.6800 3.9523 1.0000
74.6900 2.9732 1.0000
74.7000 4.0010 1.0000
74.7100 1.9776 1.0000
74.7200 2.0061 1.0000
74.7300 4.0190 1.0000
74.7400 1.0101 1.0000
74.7500 5.9975 1.0000
74.7600 1.9691 1.0000
74.7700 1.9969 1.0000
74.7800 2.9620 1.0000
74.7900 5.9463 1.0000
74.8000 4.0618 1.0000
74.8100 2.9637 1.0000
74.8200 3.9596 1.0000
74.8300 1.9712 1.0000
74.8400 4.9454 1.0000
74.8500 4.9954 1.0000
74.8600 2.9620 1.0000
74.8700 1.9832 1.0000
74.8800 3.9817 1.0000
74.8900 2.9557 1.0000
74.9000 1.9956 1.0000
74.9100 2.9825 1.0000
74.9200 2.9743 1.0000
74.9300 2.9839 1.0000
74.9400 4.0286 1.0000
74.9500 2.0004 1.0000
74.9600 1.9923 1.0000
74.9700 2.9789 1.0000
74.9800 4.0254 1.0000
74.9900 0.9869 1.0000
75.0000 0.9965 1.0000
75.0100 2.0103 1.0000
75.0200 1.9810 1.0000
75.0300 0.0000 1.0000
75.0400 2.9509 1.0000
75.0500 0.0000 1.0000
75.0600 2.9880 1.0000
75.0700 3.0087 1.0000
75.0800 1.9776 1.0000
75.0900 1.9695 1.0000
75.1000 1.9930 1.0000
75.1100 3.9955 1.0000
75.1200 2.9821 1.0000
75.1300 2.0025 1.0000
75.1400 1.9794 1.0000
75.1500 1.9870 1.0000
75.1600 1.0017 1.0000
75.1700 1.9713 1.0000
75.1800 5.0006 1.0000
75.1900 1.0200 1.0000
75.2000 3.0216 1.0000
75.2100 0.9882 1.0000
75.2200 2.9457 1.0000
75.2300 0.0000 1.0000
75.2400 4.9504 1.0000
75.2500 4.9677 1.0000
75.2600 0.9893 1.0000
75.2700 0.9800 1.0000
75.2800 0.0000 1.0000
75.2900 1.9848 1.0000
75.3000 0.0000 1.0000
75.3100 8.9385 1.0000
75.3200 1.9356 1.0000
75.3300 2.9174 1.0000
75.3400 0.0000 1.0000
75.3500 1.0053 1.0000
75.3600 3.9640 1.0000
75.3700 0.9845 1.0000
75.3800 5.9260 1.0000
75.3900 1.9956 1.0000
75.4000 4.9958 1.0000
75.4100 1.0296 1.0000
75.4200 2.9778 1.0000
75.4300 6.9485 1.0000
75.4400 1.9607 1.0000
75.4500 1.0105 1.0000
75.4600 3.9517 1.0000
75.4700 0.9873 1.0000
75.4800 5.0006 1.0000
75.4900 0.0000 1.0000
75.5000 2.9918 1.0000
75.5100 4.0094 1.0000
75.5200 1.9908 1.0000
75.5300 0.9531 1.0000
75.5400 0.9530 1.0000
75.5500 0.0000 1.0000
75.5600 1.9822 1.0000
75.5700 4.9486 1.0000
75.5800 2.9772 1.0000
75.5900 2.9892 1.0000
75.6000 0.0000 1.0000
75.6100 1.0171 1.0000
75.6200 2.9428 1.0000
75.6300 2.9881 1.0000
75.6400 4.0246 1.0000
75.6500 1.9779 1.0000
75.6600 1.9713 1.0000
75.6700 4.9441 1.0000
75.6800 1.0085 1.0000
75.6900 4.9839 1.0000
75.7000 0.0000 1.0000
75.7100 3.9332 1.0000
75.7200 0.0000 1.0000
75.7300 5.9479 1.0000
75.7400 0.9629 1.0000
75.7500 3.0090 1.0000
75.7600 1.0190 1.0000
75.7700 2.9837 1.0000
75.7800 0.9873 1.0000
75.7900 3.0212 1.0000
75.8000 0.0000 1.0000
75.8100 0.9964 1.0000
75.8200 1.9684 1.0000
75.8300 1.9647 1.0000
75.8400 0.0000 1.0000
75.8500 1.9813 1.0000
75.8600 3.0422 1.0000
75.8700 0.9766 1.0000
75.8800 1.9661 1.0000
75.8900 3.9698 1.0000
75.9000 2.9465 1.0000
75.9100 3.9460 1.0000
75.9200 4.9945 1.0000
75.9300 2.0128 1.0000
75.9400 3.0053 1.0000
75.9500 0.0000 1.0000
75.9600 1.9966 1.0000
75.9700 1.9530 1.0000
75.9800 3.9938 1.0000
75.9900 3.0018 1.0000
76.0000 1.9759 1.0000
76.0100 0.0000 1.0000
76.0200 2.9704 1.0000
76.0300 0.9983 1.0000
76.0400 3.9386 1.0000
76.0500 4.9210 1.0000
76.0600 2.9851 1.0000
76.0700 1.9944 1.0000
76.0800 2.0030 1.0000
76.0900 0.9938 1.0000
76.1000 0.9781 1.0000
76.1100 0.9701 1.0000
76.1200 5.0179 1.0000
76.1300 3.9934 1.0000
76.1400 3.0193 1.0000
76.1500 3.1150 1.0000
76.1600 0.0000 1.0000
76.1700 0.9971 1.0000
76.1800 2.9856 1.0000
76.1900 2.9653 1.0000
76.2000 4.9533 1.0000
76.2100 3.0007 1.0000
76.2200 0.9890 1.0000
76.2300 0.0000 1.0000
76.2400 0.9774 1.0000
76.2500 3.9535 1.0000
76.2600 2.0139 1.0000
76.2700 0.9986 1.0000
76.2800 1.9840 1.0000
76.2900 0.0000 1.0000
76.3000 1.9937 1.0000
76.3100 1.9932 1.0000
76.3200 1.9909 1.0000
76.3300 2.9520 1.0000
76.3400 2.0138 1.0000
76.3500 5.0370 1.0000
76.3600 2.9165 1.0000
76.3700 0.9996 1.0000
76.3800 2.0036 1.0000
76.3900 1.9876 1.0000
76.4000 3.1302 1.0000
76.4100 0.0000 1.0000
76.4200 3.9757 1.0000
76.4300 4.0120 1.0000
76.4400 2.0344 1.0000
76.4500 2.9734 1.0000
76.4600 1.9874 1.0000
76.4700 0.9920 1.0000
76.4800 4.0237 1.0000
76.4900 1.9991 1.0000
76.5000 0.0000 1.0000
76.5100 4.9807 1.0000
76.5200 0.9531 1.0000
76.5300 1.1415 1.0000
76.5400 1.9925 1.0000
76.5500 2.9778 1.0000
76.5600 4.9826 1.0000
76.5700 1.9986 1.0000
76.5800 2.9995 1.0000
76.5900 5.9446 1.0000
76.6000 4.9548 1.0000
76.6100 2.0299 1.0000
76.6200 4.0130 1.0000
76.6300 0.9955 1.0000
76.6400 2.9184 1.0000
76.6500 4.9585 1.0000
76.6600 0.0000 1.0000
76.6700 1.9703 1.0000
76.6800 0.0000 1.0000
76.6900 0.0000 1.0000
76.7000 1.9527 1.0000
76.7100 3.9474 1.0000
76.7200 2.9962 1.0000
76.7300 0.9787 1.0000
76.7400 0.0000 1.0000
76.7500 0.9935 1.0000
76.7600 1.0101 1.0000
76.7700 0.9802 1.0000
76.7800 0.0000 1.0000
76.7900 0.9905 1.0000
76.8000 1.9759 1.0000
76.8100 2.9447 1.0000
76.8200 3.0205 1.0000
76.8300 2.9706 1.0000
76.8400 1.9913 1.0000
76.8500 2.0022 1.0000
76.8600 1.9879 1.0000
76.8700 1.0220 1.0000
76.8800 2.9780 1.0000
76.8900 1.9976 1.0000
76.9000 1.9816 1.0000
76.9100 0.9918 1.0000
76.9200 3.9040 1.0000
76.9300 2.9924 1.0000
76.9400 1.0014 1.0000
76.9500 1.9742 1.0000
76.9600 2.0334 1.0000
76.9700 3.9567 1.0000
76.9800 2.9558 1.0000
76.9900 5.9252 1.0000
77.0000 6.0045 1.0000
77.0100 2.0006 1.0000
77.0200 2.0008 1.0000
77.0300 3.9754 1.0000
77.0400 0.9942 1.0000
77.0500 1.9756 1.0000
77.0600 2.0016 1.0000
77.0700 3.0168 1.0000
77.0800 2.0189 1.0000
77.0900 4.9612 1.0000
77.1000 2.0070 1.0000
77.1100 0.9939 1.0000
77.1200 2.9348 1.0000
77.1300 6.9815 1.0000
77.1400 4.9821 1.0000
77.1500 3.0429 1.0000
77.1600 6.0399 1.0000
77.1700 2.0138 1.0000
77.1800 3.9617 1.0000
77.1900 3.0166 1.0000
77.2000 3.9534 1.0000
77.2100 5.9565 1.0000
77.2200 2.9874 1.0000
77.2300 2.0299 1.0000
77.2400 2.0131 1.0000
77.2500 0.0000 1.0000
77.2600 4.0354 1.0000
77.2700 4.9658 1.0000
77.2800 0.0000 1.0000
77.2900 0.9919 1.0000
77.3000 4.9619 1.0000
77.3100 5.9913 1.0000
77.3200 0.9918 1.0000
77.3300 0.0000 1.0000
77.3400 2.9972 1.0000
77.3500 4.0121 1.0000
77.3600 1.9913 1.0000
77.3700 2.0278 1.0000
77.3800 2.9854 1.0000
77.3900 1.9826 1.0000
77.4000 2.0422 1.0000
77.4100 0.9889 1.0000
77.4200 0.9870 1.0000
77.4300 0.9972 1.0000
77.4400 1.9756 1.0000
77.4500 0.0000 1.0000
77.4600 3.0175 1.0000
77.4700 1.9866 1.0000
77.4800 3.9743 1.0000
77.4900 4.9220 1.0000
77.5000 1.9904 1.0000
77.5100 2.0080 1.0000
77.5200 4.9726 1.0000
77.5300 1.9859 1.0000
77.5400 3.9553 1.0000
77.5500 4.0018 1.0000
77.5600 2.9499 1.0000
77.5700 1.0411 1.0000
77.5800 1.9649 1.0000
77.5900 4.9370 1.0000
77.6000 1.0411 1.0000
77.6100 3.0075 1.0000
77.6200 2.0010 1.0000
77.6300 3.9880 1.0000
77.6400 0.9898 1.0000
77.6500 2.9978 1.0000
77.6600 4.0017 1.0000
77.6700 1.9583 1.0000
77.6800 1.9865 1.0000
77.6900 0.9710 1.0000
77.7000 0.9993 1.0000
77.7100 1.0286 1.0000
77.7200 2.9507 1.0000
77.7300 1.0032 1.0000
77.7400 7.9279 1.0000
77.7500 0.9990 1.0000
77.7600 3.0049 1.0000
77.7700 4.9837 1.0000
77.7800 1.0224 1.0000
77.7900 0.0000 1.0000
77.8000 0.0000 1.0000
77.8100 4.9849 1.0000
77.8200 0.0000 1.0000
77.8300 0.9839 1.0000
77.8400 2.0210 1.0000
77.8500 0.9990 1.0000
77.8600 0.0000 1.0000
77.8700 1.9935 1.0000
77.8800 4.0404 1.0000
77.8900 1.9588 1.0000
77.9000 4.0252 1.0000
77.9100 3.9921 1.0000
77.9200 1.9868 1.0000
77.9300 6.9222 1.0000
77.9400 2.9707 1.0000
77.9500 2.9622 1.0000
77.9600 0.9920 1.0000
77.9700 2.0491 1.0000
77.9800 1.9584 1.0000
77.9900 1.0009 1.0000
78.0000 5.9898 1.0000
78.0100 0.9794 1.0000
78.0200 3.0138 1.0000
78.0300 1.9796 1.0000
78.0400 0.0000 1.0000
78.0500 1.0049 1.0000
78.0600 0.0000 1.0000
78.0700 4.9782 1.0000
78.0800 1.0123 1.0000
78.0900 0.9996 1.0000
78.1000 2.9919 1.0000
78.1100 2.0471 1.0000
78.1200 2.9843 1.0000
78.1300 3.9775 1.0000
78.1400 4.9992 1.0000
78.1500 1.9711 1.0000
78.1600 5.9428 1.0000
78.1700 4.0025 1.0000
78.1800 1.9930 1.0000
78.1900 0.0000 1.0000
78.2000 2.9894 1.0000
78.2100 0.9983 1.0000
78.2200 2.9880 1.0000
78.2300 1.9715 1.0000
78.2400 0.9629 1.0000
78.2500 1.9723 1.0000
78.2600 0.9818 1.0000
78.2700 2.9580 1.0000
78.2800 3.0129 1.0000
78.2900 0.0000 1.0000
78.3000 3.9328 1.0000
78.3100 6.0102 1.0000
78.3200 2.9975 1.0000
78.3300 4.9643 1.0000
78.3400 3.0002 1.0000
78.3500 0.0000 1.0000
78.3600 0.9831 1.0000
78.3700 3.9486 1.0000
78.3800 2.9661 1.0000
78.3900 4.9867 1.0000
78.4000 1.9856 1.0000
78.4100 3.0019 1.0000
78.4200 0.9863 1.0000
78.4300 3.9519 1.0000
78.4400 1.0055 1.0000
78.4500 0.9909 1.0000
78.4600 1.9891 1.0000
78.4700 4.0142 1.0000
78.4800 2.9874 1.0000
78.4900 6.0800 1.0000
78.5000 3.9380 1.0000
78.5100 5.9430 1.0000
78.5200 1.0277 1.0000
78.5300 3.0660 1.0000
78.5400 1.9627 1.0000
78.5500 2.0036 1.0000
78.5600 3.9965 1.0000
78.5700 2.0147 1.0000
78.5800 0.0000 1.0000
78.5900 5.8824 1.0000
78.6000 0.9870 1.0000
78.6100 0.9960 1.0000
78.6200 4.9839 1.0000
78.6300 0.9899 1.0000
78.6400 4.9715 1.0000
78.6500 0.9654 1.0000
78.6600 0.9883 1.0000
78.6700 2.9642 1.0000
78.6800 4.9492 1.0000
78.6900 4.0504 1.0000
78.7000 0.0000 1.0000
78.7100 1.9816 1.0000
78.7200 0.0000 1.0000
78.7300 0.9710 1.0000
78.7400 1.9610 1.0000
78.7500 1.9611 1.0000
78.7600 5.0269 1.0000
78.7700 0.0000 1.0000
78.7800 5.9980 1.0000
78.7900 1.0076 1.0000
78.8000 3.0129 1.0000
78.8100 2.9749 1.0000
78.8200 0.9955 1.0000
78.8300 0.9840 1.0000
78.8400 3.9539 1.0000
78.8500 0.9817 1.0000
78.8600 3.9902 1.0000
78.8700 3.9537 1.0000
78.8800 2.9798 1.0000
78.8900 2.9787 1.0000
78.9000 2.0091 1.0000
78.9100 0.0000 1.0000
78.9200 1.9705 1.0000
78.9300 3.9912 1.0000
78.9400 1.9736 1.0000
78.9500 2.9558 1.0000
78.9600 2.9611 1.0000
78.9700 1.9690 1.0000
78.9800 1.9513 1.0000
78.9900 0.9878 1.0000
79.0000 2.9883 1.0000
79.0100 1.9932 1.0000
79.0200 3.0204 1.0000
79.0300 0.0000 1.0000
79.0400 1.9825 1.0000
79.0500 1.9803 1.0000
79.0600 0.9889 1.0000
79.0700 2.9545 1.0000
79.0800 1.0014 1.0000
79.0900 4.0232 1.0000
79.1000 1.9695 1.0000
79.1100 3.9844 1.0000
79.1200 2.9304 1.0000
79.1300 2.9762 1.0000
79.1400 1.0110 1.0000
79.1500 2.9954 1.0000
79.1600 6.9957 1.0000
79.1700 2.9853 1.0000
79.1800 6.9777 1.0000
79.1900 1.9715 1.0000
79.2000 1.9999 1.0000
79.2100 4.9455 1.0000
79.2200 2.9979 1.0000
79.2300 1.0159 1.0000
79.2400 2.9261 1.0000
79.2500 0.9984 1.0000
79.2600 3.9797 1.0000
79.2700 0.9889 1.0000
79.2800 1.9838 1.0000
79.2900 1.9844 1.0000
79.3000 3.9610 1.0000
79.3100 1.9875 1.0000
79.3200 0.9919 1.0000
79.3300 3.9763 1.0000
79.3400 1.9811 1.0000
79.3500 3.9510 1.0000
79.3600 2.9995 1.0000
79.3700 3.0012 1.0000
79.3800 2.9550 1.0000
79.3900 0.9746 1.0000
79.4000 2.0071 1.0000
79.4100 0.9871 1.0000
79.4200 0.0000 1.0000
79.4300 0.9893 1.0000
79.4400 5.9598 1.0000
79.4500 2.9659 1.0000
79.4600 1.9940 1.0000
79.4700 0.0000 1.0000
79.4800 1.9605 1.0000
79.4900 4.9652 1.0000
79.5000 0.9746 1.0000
79.5100 3.9977 1.0000
79.5200 1.9872 1.0000
79.5300 0.9895 1.0000
79.5400 2.9555 1.0000
79.5500 1.9945 1.0000
79.5600 0.9869 1.0000
79.5700 2.0193 1.0000
79.5800 0.0000 1.0000
79.5900 0.0000 1.0000
79.6000 0.0000 1.0000
79.6100 0.0000 1.0000
79.6200 0.9909 1.0000
79.6300 2.9866 1.0000
79.6400 1.0000 1.0000
79.6500 2.9718 1.0000
79.6600 1.9909 1.0000
79.6700 2.9861 1.0000
79.6800 0.0000 1.0000
79.6900 3.9697 1.0000
79.7000 1.0092 1.0000
79.7100 0.9710 1.0000
79.7200 4.9456 1.0000
79.7300 2.9735 1.0000
79.7400 2.0128 1.0000
79.7500 1.9546 1.0000
79.7600 4.0118 1.0000
79.7700 3.9882 1.0000
79.7800 2.9663 1.0000
79.7900 2.9806 1.0000
79.8000 3.9389 1.0000
79.8100 1.9919 1.0000
79.8200 0.9945 1.0000
79.8300 2.9826 1.0000
79.8400 0.9998 1.0000
79.8500 6.0031 1.0000
79.8600 1.0010 1.0000
79.8700 2.9782 1.0000
79.8800 2.9669 1.0000
79.8900 3.0043 1.0000
79.9000 1.9750 1.0000
79.9100 5.9779 1.0000
79.9200 2.9689 1.0000
79.9300 0.0000 1.0000
79.9400 0.9856 1.0000
79.9500 2.0188 1.0000
79.9600 1.0200 1.0000
79.9700 5.0204 1.0000
79.9800 1.9712 1.0000
79.9900 1.0054 1.0000
80.0000 1.0149 1.0000
80.0100 0.9609 1.0000
80.0200 1.9691 1.0000
80.0300 1.9998 1.0000
80.0400 0.0000 1.0000
80.0500 1.0014 1.0000
80.0600 0.0000 1.0000
80.0700 1.0200 1.0000
80.0800 1.0056 1.0000
80.0900 2.9666 1.0000
80.1000 2.0176 1.0000
80.1100 2.9747 1.0000
80.1200 2.9728 1.0000
80.1300 1.9922 1.0000
80.1400 1.0014 1.0000
80.1500 3.9702 1.0000
80.1600 0.9983 1.0000
80.1700 3.9353 1.0000
80.1800 1.9696 1.0000
80.1900 0.0000 1.0000
80.2000 1.9882 1.0000
80.2100 5.9262 1.0000
80.2200 0.0000 1.0000
80.2300 3.0005 1.0000
80.2400 1.9796 1.0000
80.2500 0.0000 1.0000
80.2600 0.9989 1.0000
80.2700 0.9530 1.0000
80.2800 1.9798 1.0000
80.2900 1.9659 1.0000
80.3000 2.0253 1.0000
80.3100 0.9822 1.0000
80.3200 1.9938 1.0000
80.3300 2.9824 1.0000
80.3400 2.9762 1.0000
80.3500 0.0000 1.0000
80.3600 3.0195 1.0000
80.3700 1.9997 1.0000
80.3800 3.9580 1.0000
80.3900 0.9720 1.0000
80.4000 2.0096 1.0000
80.4100 0.9843 1.0000
80.4200 3.9326 1.0000
80.4300 0.9935 1.0000
80.4400 1.9922 1.0000
80.4500 3.9204 1.0000
80.4600 0.0000 1.0000
80.4700 4.0063 1.0000
80.4800 2.0061 1.0000
80.4900 1.9758 1.0000
80.5000 1.9574 1.0000
80.5100 0.0000 1.0000
80.5200 0.0000 1.0000
80.5300 1.9839 1.0000
80.5400 1.0092 1.0000
80.5500 0.0000 1.0000
80.5600 2.9753 1.0000
80.5700 3.0240 1.0000
80.5800 2.9128 1.0000
80.5900 3.9885 1.0000
80.6000 4.9856 1.0000
80.6100 0.9954 1.0000
80.6200 3.9249 1.0000
80.6300 3.9905 1.0000
80.6400 3.9792 1.0000
80.6500 0.0000 1.0000
80.6600 0.0000 1.0000
80.6700 0.0000 1.0000
80.6800 0.0000 1.0000
80.6900 1.9736 1.0000
80.7000 4.0192 1.0000
80.7100 1.9934 1.0000
80.7200 1.0026 1.0000
80.7300 0.0000 1.0000
80.7400 1.9882 1.0000
80.7500 1.9649 1.0000
80.7600 2.0108 1.0000
80.7700 0.9826 1.0000
80.7800 4.0059 1.0000
80.7900 5.0111 1.0000
80.8000 0.9983 1.0000
80.8100 0.9840 1.0000
80.8200 3.9933 1.0000
80.8300 5.9222 1.0000
80.8400 2.9692 1.0000
80.8500 1.0177 1.0000
80.8600 2.9606 1.0000
80.8700 0.0000 1.0000
80.8800 2.9407 1.0000
80.8900 4.0104 1.0000
80.9000 2.0102 1.0000
80.9100 5.0213 1.0000
80.9200 2.0023 1.0000
80.9300 1.9698 1.0000
80.9400 1.9914 1.0000
80.9500 0.9918 1.0000
80.9600 3.9826 1.0000
80.9700 0.0000 1.0000
80.9800 5.0256 1.0000
80.9900 1.9722 1.0000
81.0000 3.0067 1.0000
81.0100 5.9353 1.0000
81.0200 3.0360 1.0000
81.0300 1.0308 1.0000
81.0400 0.9902 1.0000
81.0500 0.9530 1.0000
81.0600 3.9658 1.0000
81.0700 2.9590 1.0000
81.0800 4.0223 1.0000
81.0900 4.0154 1.0000
81.1000 4.0382 1.0000
81.1100 3.0155 1.0000
81.1200 2.9784 1.0000
81.1300 3.0144 1.0000
81.1400 2.0092 1.0000
81.1500 1.0033 1.0000
81.1600 6.0006 1.0000
81.1700 4.0085 1.0000
81.1800 1.9869 1.0000
81.1900 2.9630 1.0000
81.2000 3.0327 1.0000
81.2100 2.0095 1.0000
81.2200 1.0018 1.0000
81.2300 0.9816 1.0000
81.2400 4.0042 1.0000
81.2500 2.0072 1.0000
81.2600 4.0122 1.0000
81.2700 3.0119 1.0000
81.2800 2.9882 1.0000
81.2900 2.0337 1.0000
81.3000 3.9746 1.0000
81.3100 2.0171 1.0000
81.3200 2.9985 1.0000
81.3300 4.9454 1.0000
81.3400 3.0237 1.0000
81.3500 3.0043 1.0000
81.3600 1.9764 1.0000
81.3700 2.9777 1.0000
81.3800 3.9810 1.0000
81.3900 2.0028 1.0000
81.4000 4.0175 1.0000
81.4100 1.9935 1.0000
81.4200 1.9714 1.0000
81.4300 0.9924 1.0000
81.4400 0.9935 1.0000
81.4500 2.9539 1.0000
81.4600 5.0008 1.0000
81.4700 1.0105 1.0000
81.4800 2.0186 1.0000
81.4900 2.0116 1.0000
81.5000 3.9464 1.0000
81.5100 6.0344 1.0000
81.5200 3.9819 1.0000
81.5300 1.0194 1.0000
81.5400 1.9815 1.0000
81.5500 4.9708 1.0000
81.5600 0.0000 1.0000
81.5700 1.0054 1.0000
81.5800 2.9841 1.0000
81.5900 2.9485 1.0000
81.6000 1.0060 1.0000
81.6100 2.9700 1.0000
81.6200 1.9954 1.0000
81.6300 3.9789 1.0000
81.6400 2.9606 1.0000
81.6500 3.0289 1.0000
81.6600 2.9882 1.0000
81.6700 1.9681 1.0000
81.6800 1.9730 1.0000
81.6900 3.9799 1.0000
81.7000 2.9752 1.0000
81.7100 3.9510 1.0000
81.7200 1.9635 1.0000
81.7300 2.9721 1.0000
81.7400 1.9929 1.0000
81.7500 4.9661 1.0000
81.7600 0.9904 1.0000
81.7700 0.9989 1.0000
81.7800 3.9552 1.0000
81.7900 4.9654 1.0000
81.8000 3.0068 1.0000
81.8100 7.9105 1.0000
81.8200 1.9564 1.0000
81.8300 0.9804 1.0000
81.8400 5.0631 1.0000
81.8500 2.0008 1.0000
81.8600 4.9828 1.0000
81.8700 6.9659 1.0000
81.8800 2.9908 1.0000
81.8900 5.9672 1.0000
81.9000 5.9774 1.0000
81.9100 2.0458 1.0000
81.9200 1.0066 1.0000
81.9300 3.9956 1.0000
81.9400 4.9939 1.0000
81.9500 5.9430 1.0000
81.9600 1.0306 1.0000
81.9700 1.9782 1.0000
81.9800 1.0039 1.0000
81.9900 5.9410 1.0000
82.0000 3.9644 1.0000
82.0100 4.9659 1.0000
82.0200 4.9959 1.0000
82.0300 4.9587 1.0000
82.0400 2.9906 1.0000
82.0500 2.9928 1.0000
82.0600 2.9671 1.0000
82.0700 2.9858 1.0000
82.0800 1.0161 1.0000
82.0900 2.9953 1.0000
82.1000 1.9962 1.0000
82.1100 1.9740 1.0000
82.1200 4.9572 1.0000
82.1300 2.9963 1.0000
82.1400 2.9855 1.0000
82.1500 4.9595 1.0000
82.1600 0.9918 1.0000
82.1700 1.0208 1.0000
82.1800 0.0000 1.0000
82.1900 0.9682 1.0000
82.2000 4.0037 1.0000
82.2100 2.9761 1.0000
82.2200 0.9956 1.0000
82.2300 1.0109 1.0000
82.2400 2.9908 1.0000
82.2500 1.9768 1.0000
82.2600 1.9851 1.0000
82.2700 2.0213 1.0000
82.2800 2.9482 1.0000
82.2900 2.9984 1.0000
82.3000 1.9887 1.0000
82.3100 3.9326 1.0000
82.3200 3.0135 1.0000
82.3300 0.9870 1.0000
82.3400 0.0000 1.0000
82.3500 0.9975 1.0000
82.3600 1.9982 1.0000
82.3700 0.0000 1.0000
82.3800 2.9395 1.0000
82.3900 3.0320 1.0000
82.4000 3.9455 1.0000
82.4100 0.9728 1.0000
82.4200 3.9713 1.0000
82.4300 0.9894 1.0000
82.4400 1.9880 1.0000
82.4500 2.9958 1.0000
82.4600 1.9996 1.0000
82.4700 0.9682 1.0000
82.4800 1.9786 1.0000
82.4900 2.9802 1.0000
82.5000 0.9848 1.0000
82.5100 0.9945 1.0000
82.5200 2.9353 1.0000
82.5300 1.9639 1.0000
82.5400 2.9714 1.0000
82.5500 0.9658 1.0000
82.5600 2.0075 1.0000
82.5700 6.9653 1.0000
82.5800 3.0309 1.0000
82.5900 2.9710 1.0000
82.6000 3.9767 1.0000
82.6100 1.0115 1.0000
82.6200 1.0002 1.0000
82.6300 3.0171 1.0000
82.6400 4.9598 1.0000
82.6500 0.0000 1.0000
82.6600 3.9819 1.0000
82.6700 1.9658 1.0000
82.6800 0.0000 1.0000
82.6900 3.0396 1.0000
82.7000 0.9932 1.0000
82.7100 3.9627 1.0000
82.7200 4.0170 1.0000
82.7300 0.9977 1.0000
82.7400 0.0000 1.0000
82.7500 2.9984 1.0000
82.7600 3.0469 1.0000
82.7700 2.9312 1.0000
82.7800 0.9880 1.0000
82.7900 6.9629 1.0000
82.8000 1.9876 1.0000
82.8100 2.0108 1.0000
82.8200 4.9757 1.0000
82.8300 3.0044 1.0000
82.8400 3.9803 1.0000
82.8500 0.9947 1.0000
82.8600 2.9642 1.0000
82.8700 3.0293 1.0000
82.8800 0.9531 1.0000
82.8900 0.9755 1.0000
82.9000 2.9624 1.0000
82.9100 1.0179 1.0000
82.9200 1.0026 1.0000
82.9300 5.0919 1.0000
82.9400 5.0418 1.0000
82.9500 3.9947 1.0000
82.9600 0.9711 1.0000
82.9700 1.9703 1.0000
82.9800 3.0132 1.0000
82.9900 0.9928 1.0000
83.0000 0.9710 1.0000
83.0100 1.9988 1.0000
83.0200 0.9924 1.0000
83.0300 1.9986 1.0000
83.0400 2.0096 1.0000
83.0500 0.9960 1.0000
83.0600 2.9993 1.0000
83.0700 1.0171 1.0000
83.0800 2.9861 1.0000
83.0900 2.0041 1.0000
83.1000 0.0000 1.0000
83.1100 1.9774 1.0000
83.1200 0.9887 1.0000
83.1300 2.9714 1.0000
83.1400 0.9947 1.0000
83.1500 1.0110 1.0000
83.1600 0.9960 1.0000
83.1700 1.9878 1.0000
83.1800 3.9649 1.0000
83.1900 4.9734 1.0000
83.2000 3.0012 1.0000
83.2100 2.9453 1.0000
83.2200 6.9592 1.0000
83.2300 0.0000 1.0000
83.2400 1.9836 1.0000
83.2500 0.0000 1.0000
83.2600 4.0335 1.0000
83.2700 3.9573 1.0000
83.2800 4.9970 1.0000
83.2900 3.0198 1.0000
83.3000 1.9965 1.0000
83.3100 4.0021 1.0000
83.3200 4.0060 1.0000
83.3300 2.9599 1.0000
83.3400 1.9944 1.0000
83.3500 0.0000 1.0000
83.3600 3.0187 1.0000
83.3700 4.1404 1.0000
83.3800 3.9848 1.0000
83.3900 0.0000 1.0000
83.4000 5.9450 1.0000
83.4100 2.0009 1.0000
83.4200 1.0045 1.0000
83.4300 4.9959 1.0000
83.4400 0.0000 1.0000
83.4500 1.9976 1.0000
83.4600 4.0269 1.0000
83.4700 3.9852 1.0000
83.4800 0.0000 1.0000
83.4900 3.0166 1.0000
83.5000 0.9954 1.0000
83.5100 2.9329 1.0000
83.5200 2.9805 1.0000
83.5300 1.9749 1.0000
83.5400 1.9772 1.0000
83.5500 3.9803 1.0000
83.5600 3.8939 1.0000
83.5700 1.9534 1.0000
83.5800 1.9768 1.0000
83.5900 0.9920 1.0000
83.6000 5.9464 1.0000
83.6100 3.9574 1.0000
83.6200 1.9878 1.0000
83.6300 1.9784 1.0000
83.6400 0.0000 1.0000
83.6500 1.9577 1.0000
83.6600 6.0103 1.0000
83.6700 0.0000 1.0000
83.6800 0.9847 1.0000
83.6900 2.9946 1.0000
83.7000 2.9934 1.0000
83.7100 2.0021 1.0000
83.7200 0.0000 1.0000
83.7300 1.9941 1.0000
83.7400 1.9837 1.0000
83.7500 1.9944 1.0000
83.7600 9.1584 1.0000
83.7700 2.9910 1.0000
83.7800 2.9814 1.0000
83.7900 0.9849 1.0000
83.8000 4.9949 1.0000
83.8100 0.9988 1.0000
83.8200 0.0000 1.0000
83.8300 3.9338 1.0000
83.8400 2.9875 1.0000
83.8500 4.9305 1.0000
83.8600 3.0230 1.0000
83.8700 0.0000 1.0000
83.8800 0.0000 1.0000
83.8900 2.9768 1.0000
83.9000 4.9421 1.0000
83.9100 1.9972 1.0000
83.9200 0.0000 1.0000
83.9300 1.9843 1.0000
83.9400 2.9931 1.0000
83.9500 0.0000 1.0000
83.9600 2.9866 1.0000
83.9700 1.9703 1.0000
83.9800 0.9919 1.0000
83.9900 1.0002 1.0000
84.0000 2.9823 1.0000
84.0100 2.9805 1.0000
84.0200 0.9984 1.0000
84.0300 1.0015 1.0000
84.0400 2.0026 1.0000
84.0500 0.0000 1.0000
84.0600 3.9540 1.0000
84.0700 2.9630 1.0000
84.0800 0.0000 1.0000
84.0900 3.0102 1.0000
84.1000 1.0081 1.0000
84.1100 1.9688 1.0000
84.1200 0.9969 1.0000
84.1300 5.9775 1.0000
84.1400 0.0000 1.0000
84.1500 8.9901 1.0000
84.1600 1.0338 1.0000
84.1700 3.9941 1.0000
84.1800 5.2907 1.0000
84.1900 2.9557 1.0000
84.2000 1.0109 1.0000
84.2100 4.9335 1.0000
84.2200 6.0154 1.0000
84.2300 2.9871 1.0000
84.2400 0.9934 1.0000
84.2500 1.9970 1.0000
84.2600 0.9802 1.0000
84.2700 4.9907 1.0000
84.2800 3.9480 1.0000
84.2900 4.0380 1.0000
84.3000 0.0000 1.0000
84.3100 1.9805 1.0000
84.3200 4.0197 1.0000
84.3300 0.0000 1.0000
84.3400 1.9675 1.0000
84.3500 1.0109 1.0000
84.3600 1.0063 1.0000
84.3700 2.9639 1.0000
84.3800 1.9705 1.0000
84.3900 0.9794 1.0000
84.4000 1.0012 1.0000
84.4100 0.9816 1.0000
84.4200 0.0000 1.0000
84.4300 1.0002 1.0000
84.4400 2.9876 1.0000
84.4500 0.0000 1.0000
84.4600 0.9845 1.0000
84.4700 3.9879 1.0000
84.4800 2.9731 1.0000
84.4900 4.9660 1.0000
84.5000 0.0000 1.0000
84.5100 1.0308 1.0000
84.5200 3.0222 1.0000
84.5300 0.0000 1.0000
84.5400 2.0093 1.0000
84.5500 4.0160 1.0000
84.5600 1.9488 1.0000
84.5700 0.0000 1.0000
84.5800 1.0081 1.0000
84.5900 0.9887 1.0000
84.6000 5.9331 1.0000
84.6100 1.9748 1.0000
84.6200 2.0120 1.0000
84.6300 2.0298 1.0000
84.6400 1.9511 1.0000
84.6500 0.9695 1.0000
84.6600 2.0019 1.0000
84.6700 0.9781 1.0000
84.6800 3.9804 1.0000
84.6900 4.9788 1.0000
84.7000 0.9863 1.0000
84.7100 1.9454 1.0000
84.7200 1.9893 1.0000
84.7300 2.1377 1.0000
84.7400 2.0434 1.0000
84.7500 2.9878 1.0000
84.7600 0.9848 1.0000
84.7700 1.0062 1.0000
84.7800 0.9766 1.0000
84.7900 2.0087 1.0000
84.8000 0.0000 1.0000
84.8100 2.0080 1.0000
84.8200 1.9702 1.0000
84.8300 1.9367 1.0000
84.8400 0.9841 1.0000
84.8500 0.9965 1.0000
84.8600 3.9466 1.0000
84.8700 3.0258 1.0000
84.8800 0.0000 1.0000
84.8900 3.1437 1.0000
84.9000 3.0342 1.0000
84.9100 2.9715 1.0000
84.9200 3.0123 1.0000
84.9300 1.0101 1.0000
84.9400 3.9305 1.0000
84.9500 0.9947 1.0000
84.9600 3.0176 1.0000
84.9700 0.9861 1.0000
84.9800 0.9899 1.0000
84.9900 1.9614 1.0000
85.0000 0.9890 1.0000
85.0100 1.9815 1.0000
85.0200 1.0048 1.0000
85.0300 0.0000 1.0000
85.0400 4.0633 1.0000
85.0500 2.9725 1.0000
85.0600 2.9754 1.0000
85.0700 0.0000 1.0000
85.0800 2.0095 1.0000
85.0900 0.9936 1.0000
85.1000 0.9706 1.0000
85.1100 4.9492 1.0000
85.1200 0.0000 1.0000
85.1300 2.9680 1.0000
85.1400 2.9732 1.0000
85.1500 3.0297 1.0000
85.1600 4.9553 1.0000
85.1700 2.9747 1.0000
85.1800 3.0023 1.0000
85.1900 0.9922 1.0000
85.2000 3.9998 1.0000
85.2100 0.9885 1.0000
85.2200 2.0076 1.0000
85.2300 2.0135 1.0000
85.2400 1.0060 1.0000
85.2500 4.9192 1.0000
85.2600 2.0011 1.0000
85.2700 4.0108 1.0000
85.2800 2.0178 1.0000
85.2900 1.9634 1.0000
85.3000 4.9485 1.0000
85.3100 1.9923 1.0000
85.3200 5.0155 1.0000
85.3300 2.0145 1.0000
85.3400 0.0000 1.0000
85.3500 1.0039 1.0000
85.3600 0.0000 1.0000
85.3700 1.9875 1.0000
85.3800 3.9705 1.0000
85.3900 5.9696 1.0000
85.4000 0.9875 1.0000
85.4100 2.0019 1.0000
85.4200 2.0127 1.0000
85.4300 0.9853 1.0000
85.4400 1.9959 1.0000
85.4500 0.0000 1.0000
85.4600 1.9848 1.0000
85.4700 1.0003 1.0000
85.4800 3.0033 1.0000
85.4900 2.9893 1.0000
85.5000 0.9919 1.0000
85.5100 2.0068 1.0000
85.5200 0.0000 1.0000
85.5300 2.9670 1.0000
85.5400 2.0048 1.0000
85.5500 0.9995 1.0000
85.5600 0.0000 1.0000
85.5700 3.9754 1.0000
85.5800 0.9961 1.0000
85.5900 0.9964 1.0000
85.6000 3.0236 1.0000
85.6100 5.9607 1.0000
85.6200 2.9911 1.0000
85.6300 2.9498 1.0000
85.6400 1.9946 1.0000
85.6500 0.9979 1.0000
85.6600 1.9800 1.0000
85.6700 1.9818 1.0000
85.6800 4.9632 1.0000
85.6900 3.0311 1.0000
85.7000 5.0517 1.0000
85.7100 2.9921 1.0000
85.7200 4.9364 1.0000
85.7300 0.0000 1.0000
85.7400 1.9685 1.0000
85.7500 1.9940 1.0000
85.7600 4.9820 1.0000
85.7700 1.9836 1.0000
85.7800 0.9883 1.0000
85.7900 1.0038 1.0000
85.8000 1.9802 1.0000
85.8100 1.0045 1.0000
85.8200 3.9787 1.0000
85.8300 0.9826 1.0000
85.8400 3.9830 1.0000
85.8500 4.9692 1.0000
85.8600 3.9752 1.0000
85.8700 2.9919 1.0000
85.8800 1.9741 1.0000
85.8900 0.9654 1.0000
85.9000 0.9873 1.0000
85.9100 1.9590 1.0000
85.9200 2.9750 1.0000
85.9300 0.9866 1.0000
85.9400 4.0289 1.0000
85.9500 1.9885 1.0000
85.9600 2.9692 1.0000
85.9700 0.0000 1.0000
85.9800 2.0186 1.0000
85.9900 2.9938 1.0000
86.0000 3.9628 1.0000
86.0100 3.9188 1.0000
86.0200 2.9349 1.0000
86.0300 0.0000 1.0000
86.0400 4.9530 1.0000
86.0500 0.0000 1.0000
86.0600 3.9603 1.0000
86.0700 2.9830 1.0000
86.0800 1.0044 1.0000
86.0900 0.9984 1.0000
86.1000 1.0039 1.0000
86.1100 3.9779 1.0000
86.1200 1.0208 1.0000
86.1300 3.9566 1.0000
86.1400 1.9781 1.0000
86.1500 0.0000 1.0000
86.1600 0.9850 1.0000
86.1700 1.9430 1.0000
86.1800 1.9988 1.0000
86.1900 0.0000 1.0000
86.2000 0.9831 1.0000
86.2100 2.0009 1.0000
86.2200 0.9865 1.0000
86.2300 1.9929 1.0000
86.2400 3.0521 1.0000
86.2500 2.9796 1.0000
86.2600 1.9945 1.0000
86.2700 1.9806 1.0000
86.2800 1.9923 1.0000
86.2900 1.9901 1.0000
86.3000 0.9849 1.0000
86.3100 2.9914 1.0000
86.3200 0.0000 1.0000
86.3300 2.9992 1.0000
86.3400 1.9986 1.0000
86.3500 0.9792 1.0000
86.3600 2.0532 1.0000
86.3700 0.0000 1.0000
86.3800 2.9772 1.0000
86.3900 1.0038 1.0000
86.4000 1.0000 1.0000
86.4100 1.9970 1.0000
86.4200 0.9942 1.0000
86.4300 2.9989 1.0000
86.4400 2.9697 1.0000
86.4500 1.9803 1.0000
86.4600 0.9988 1.0000
86.4700 1.9538 1.0000
86.4800 1.9837 1.0000
86.4900 0.0000 1.0000
86.5000 2.9716 1.0000
86.5100 0.0000 1.0000
86.5200 4.0372 1.0000
86.5300 4.0089 1.0000
86.5400 1.9559 1.0000
86.5500 1.9881 1.0000
86.5600 2.9802 1.0000
86.5700 0.0000 1.0000
86.5800 3.0048 1.0000
86.5900 2.9898 1.0000
86.6000 1.9735 1.0000
86.6100 2.9854 1.0000
86.6200 2.0012 1.0000
86.6300 1.9669 1.0000
86.6400 1.9971 1.0000
86.6500 1.0021 1.0000
86.6600 2.9611 1.0000
86.6700 3.0572 1.0000
86.6800 1.0250 1.0000
86.6900 1.9932 1.0000
86.7000 1.0192 1.0000
86.7100 0.9821 1.0000
86.7200 4.9626 1.0000
86.7300 0.0000 1.0000
86.7400 0.0000 1.0000
86.7500 2.9384 1.0000
86.7600 0.0000 1.0000
86.7700 2.9618 1.0000
86.7800 2.9845 1.0000
86.7900 1.9939 1.0000
86.8000 4.0160 1.0000
86.8100 0.9862 1.0000
86.8200 1.9586 1.0000
86.8300 0.9863 1.0000
86.8400 3.9607 1.0000
86.8500 4.9227 1.0000
86.8600 1.9635 1.0000
86.8700 3.0193 1.0000
86.8800 3.9626 1.0000
86.8900 1.0056 1.0000
86.9000 1.9655 1.0000
86.9100 1.9993 1.0000
86.9200 0.0000 1.0000
86.9300 2.9854 1.0000
86.9400 2.9582 1.0000
86.9500 0.9629 1.0000
86.9600 1.9702 1.0000
86.9700 0.9941 1.0000
86.9800 0.0000 1.0000
86.9900 1.0044 1.0000
87.0000 0.0000 1.0000
87.0100 2.9545 1.0000
87.0200 0.0000 1.0000
87.0300 0.9754 1.0000
87.0400 2.0263 1.0000
87.0500 2.0003 1.0000
87.0600 2.9755 1.0000
87.0700 1.0139 1.0000
87.0800 3.0660 1.0000
87.0900 3.0219 1.0000
87.1000 2.9866 1.0000
87.1100 2.9557 1.0000
87.1200 1.9560 1.0000
87.1300 0.9921 1.0000
87.1400 3.1537 1.0000
87.1500 4.9311 1.0000
87.1600 2.9742 1.0000
87.1700 0.9736 1.0000
87.1800 3.9616 1.0000
87.1900 2.9590 1.0000
87.2000 5.0397 1.0000
87.2100 1.9875 1.0000
87.2200 0.9998 1.0000
87.2300 1.9728 1.0000
87.2400 7.9578 1.0000
87.2500 0.9977 1.0000
87.2600 3.9809 1.0000
87.2700 0.9932 1.0000
87.2800 2.0049 1.0000
87.2900 3.9914 1.0000
87.3000 4.9570 1.0000
87.3100 0.9937 1.0000
87.3200 0.0000 1.0000
87.3300 0.9939 1.0000
87.3400 2.9849 1.0000
87.3500 2.9875 1.0000
87.3600 3.0186 1.0000
87.3700 0.0000 1.0000
87.3800 2.0001 1.0000
87.3900 0.0000 1.0000
87.4000 1.9814 1.0000
87.4100 0.0000 1.0000
87.4200 2.0047 1.0000
87.4300 3.9456 1.0000
87.4400 0.9531 1.0000
87.4500 1.9843 1.0000
87.4600 2.9464 1.0000
87.4700 0.0000 1.0000
87.4800 4.0040 1.0000
87.4900 1.9890 1.0000
87.5000 2.9920 1.0000
87.5100 1.9857 1.0000
87.5200 4.9691 1.0000
87.5300 0.0000 1.0000
87.5400 1.0056 1.0000
87.5500 0.0000 1.0000
87.5600 2.9666 1.0000
87.5700 0.0000 1.0000
87.5800 1.9759 1.0000
87.5900 1.9996 1.0000
87.6000 2.9872 1.0000
87.6100 3.9529 1.0000
87.6200 3.9907 1.0000
87.6300 2.0026 1.0000
87.6400 1.9918 1.0000
87.6500 0.9848 1.0000
87.6600 3.0042 1.0000
87.6700 1.0089 1.0000
87.6800 1.0250 1.0000
87.6900 0.9794 1.0000
87.7000 0.0000 1.0000
87.7100 1.9716 1.0000
87.7200 1.0048 1.0000
87.7300 2.0088 1.0000
87.7400 0.0000 1.0000
87.7500 3.0030 1.0000
87.7600 1.9731 1.0000
87.7700 3.9724 1.0000
87.7800 0.0000 1.0000
87.7900 2.9685 1.0000
87.8000 1.9297 1.0000
87.8100 1.0021 1.0000
87.8200 1.9969 1.0000
87.8300 0.9954 1.0000
87.8400 1.0020 1.0000
87.8500 2.0017 1.0000
87.8600 4.9371 1.0000
87.8700 3.0004 1.0000
87.8800 2.9618 1.0000
87.8900 0.9950 1.0000
87.9000 0.9993 1.0000
87.9100 1.9818 1.0000
87.9200 3.0156 1.0000
87.9300 1.9859 1.0000
87.9400 3.0191 1.0000
87.9500 1.0009 1.0000
87.9600 1.0018 1.0000
87.9700 0.9993 1.0000
87.9800 1.9606 1.0000
87.9900 2.9666 1.0000
88.0000 6.1430 1.0000
88.0100 2.0101 1.0000
88.0200 0.0000 1.0000
88.0300 3.9946 1.0000
88.0400 2.9626 1.0000
88.0500 4.9339 1.0000
88.0600 2.0040 1.0000
88.0700 2.9935 1.0000
88.0800 0.0000 1.0000
88.0900 4.9873 1.0000
88.1000 2.9901 1.0000
88.1100 0.9978 1.0000
88.1200 4.9663 1.0000
88.1300 3.0054 1.0000
88.1400 2.9776 1.0000
88.1500 2.9856 1.0000
88.1600 3.9873 1.0000
88.1700 2.0075 1.0000
88.1800 1.0048 1.0000
88.1900 1.9683 1.0000
88.2000 0.0000 1.0000
88.2100 3.0029 1.0000
88.2200 2.9687 1.0000
88.2300 3.9848 1.0000
88.2400 3.9648 1.0000
88.2500 0.9530 1.0000
88.2600 6.0291 1.0000
88.2700 1.9832 1.0000
88.2800 0.9781 1.0000
88.2900 6.9945 1.0000
88.3000 2.9804 1.0000
88.3100 3.9669 1.0000
88.3200 0.9920 1.0000
88.3300 1.9848 1.0000
88.3400 1.0101 1.0000
88.3500 0.9940 1.0000
88.3600 0.9822 1.0000
88.3700 0.9829 1.0000
88.3800 2.9742 1.0000
88.3900 0.0000 1.0000
88.4000 2.9437 1.0000
88.4100 3.9671 1.0000
88.4200 2.9452 1.0000
88.4300 2.9433 1.0000
88.4400 2.9789 1.0000
88.4500 5.9506 1.0000
88.4600 0.0000 1.0000
88.4700 0.0000 1.0000
88.4800 1.9789 1.0000
88.4900 2.9778 1.0000
88.5000 2.9547 1.0000
88.5100 2.9951 1.0000
88.5200 0.0000 1.0000
88.5300 1.0091 1.0000
88.5400 0.0000 1.0000
88.5500 3.9831 1.0000
88.5600 0.0000 1.0000
88.5700 0.9976 1.0000
88.5800 1.9935 1.0000
88.5900 1.9866 1.0000
88.6000 1.9750 1.0000
88.6100 1.9410 1.0000
88.6200 1.9697 1.0000
88.6300 0.0000 1.0000
88.6400 1.9942 1.0000
88.6500 5.0290 1.0000
88.6600 2.9793 1.0000
88.6700 1.9629 1.0000
88.6800 2.9345 1.0000
88.6900 3.9788 1.0000
88.7000 1.9888 1.0000
88.7100 2.9828 1.0000
88.7200 2.9946 1.0000
88.7300 4.9686 1.0000
88.7400 2.9671 1.0000
88.7500 1.9919 1.0000
88.7600 1.9575 1.0000
88.7700 1.9885 1.0000
88.7800 0.0000 1.0000
88.7900 0.0000 1.0000
88.8000 0.9893 1.0000
88.8100 1.0283 1.0000
88.8200 1.9801 1.0000
88.8300 2.9779 1.0000
88.8400 2.9775 1.0000
88.8500 3.9448 1.0000
88.8600 2.0190 1.0000
88.8700 5.9884 1.0000
88.8800 3.0230 1.0000
88.8900 0.0000 1.0000
88.9000 1.9798 1.0000
88.9100 1.0000 1.0000
88.9200 0.9844 1.0000
88.9300 1.0055 1.0000
88.9400 0.0000 1.0000
88.9500 4.0177 1.0000
88.9600 3.9653 1.0000
88.9700 1.9994 1.0000
88.9800 2.9718 1.0000
88.9900 2.9869 1.0000
89.0000 1.9830 1.0000
89.0100 3.9606 1.0000
89.0200 4.9632 1.0000
89.0300 1.9819 1.0000
89.0400 1.0092 1.0000
89.0500 6.9490 1.0000
89.0600 4.0348 1.0000
89.0700 5.0165 1.0000
89.0800 4.0171 1.0000
89.0900 4.9500 1.0000
89.1000 0.9948 1.0000
89.1100 1.9590 1.0000
89.1200 2.9647 1.0000
89.1300 2.9870 1.0000
89.1400 3.9382 1.0000
89.1500 0.9919 1.0000
89.1600 1.9845 1.0000
89.1700 1.9614 1.0000
89.1800 1.9629 1.0000
89.1900 2.9665 1.0000
89.2000 1.0010 1.0000
89.2100 4.0002 1.0000
89.2200 3.9838 1.0000
89.2300 1.0134 1.0000
89.2400 4.0183 1.0000
89.2500 5.9868 1.0000
89.2600 4.0148 1.0000
89.2700 0.0000 1.0000
89.2800 2.9524 1.0000
89.2900 1.0277 1.0000
89.3000 1.9986 1.0000
89.3100 1.9881 1.0000
89.3200 0.9701 1.0000
89.3300 1.0306 1.0000
89.3400 4.9732 1.0000
89.3500 1.9873 1.0000
89.3600 2.9578 1.0000
89.3700 6.0353 1.0000
89.3800 3.9691 1.0000
89.3900 3.0081 1.0000
89.4000 0.0000 1.0000
89.4100 3.9477 1.0000
89.4200 0.9847 1.0000
89.4300 1.9924 1.0000
89.4400 0.9862 1.0000
89.4500 0.9922 1.0000
89.4600 1.0045 1.0000
89.4700 3.0274 1.0000
89.4800 1.9903 1.0000
89.4900 1.9988 1.0000
89.5000 1.9944 1.0000
89.5100 2.9678 1.0000
89.5200 0.9792 1.0000
89.5300 1.0044 1.0000
89.5400 1.9828 1.0000
89.5500 4.9859 1.0000
89.5600 0.9814 1.0000
89.5700 1.9432 1.0000
89.5800 2.9863 1.0000
89.5900 2.9871 1.0000
89.6000 2.0072 1.0000
89.6100 1.0071 1.0000
89.6200 4.9782 1.0000
89.6300 6.9279 1.0000
89.6400 1.9870 1.0000
89.6500 1.9794 1.0000
89.6600 3.9613 1.0000
89.6700 0.0000 1.0000
89.6800 1.9831 1.0000
89.6900 3.0401 1.0000
89.7000 5.0054 1.0000
89.7100 0.0000 1.0000
89.7200 0.0000 1.0000
89.7300 3.9732 1.0000
89.7400 3.9833 1.0000
89.7500 0.9839 1.0000
89.7600 1.0019 1.0000
89.7700 5.9637 1.0000
89.7800 0.0000 1.0000
89.7900 3.9754 1.0000
89.8000 3.9498 1.0000
89.8100 1.9830 1.0000
89.8200 0.0000 1.0000
89.8300 1.9706 1.0000
89.8400 1.0055 1.0000
89.8500 5.0254 1.0000
89.8600 1.9825 1.0000
89.8700 4.0311 1.0000
89.8800 1.9961 1.0000
89.8900 1.9754 1.0000
89.9000 3.0092 1.0000
89.9100 2.9717 1.0000
89.9200 2.0221 1.0000
89.9300 2.9492 1.0000
89.9400 3.9584 1.0000
89.9500 1.9990 1.0000
89.9600 1.0032 1.0000
89.9700 2.0035 1.0000
89.9800 0.9935 1.0000
89.9900 4.9950 1.0000
90.0000 2.9931 1.0000
*RAS_INT_END
*RAS_DATA_END
