*TYPE		=  Raw
*CLASS		=  ASCII CLASS
*SAMPLE		=  A59
*COMMENT	=   
*FNAME		=  A59_omega_ω.asc
*DATE		=  11-Jun-19 12:04

*GROUP_COUNT	=  1
*GONIO		=  SmartLab(In-plane), 0.000000
*ATTACHMENT	=  χφZクレードル
*ASC		=  0, 0, 0.000000, 0.000000
*I_MONOCHRO	=  Ge(220)x2, 0.000000
*FILTER		=  None
*C_MONOCHRO	=  No_unit, 0.000000
*SLIT_NAME	=  0, 入射スリット
*SLIT_NAME	=  1, 受光スリット1
*SLIT_NAME	=  2, 受光スリット2
*COUNTER	=  HyPix 3000(H), 0
*POS_FORMAT	=  0
*SCAN_AXIS	=  Omega
*MEAS_MODE	=  Continuous Scanning
*TARGET		=  29
*XRAY_CHAR	=  K-ALPHA1
*WAVE_LENGTH1	=  1.54059
*WAVE_LENGTH2	=  1.54441
*THICKNESS	=  0, 0.000000
*MU		=  0, 0.000000
*SCAN_MODE	=  Omega
*SPEED_DIM	=  sec./step
*XUNIT		=  deg.
*YUNIT		=  counts
*SCALE_MODE	=  1
*REP_COUNT	=  0
*SE_COUNT	=  0
*STD_MATERIAL	=  Unknown, Unknown, 0.000000, 0.000000, 0.000000, 0.000000, 0.000000, 0.000000
*LATT_CONS	=  0, Unknown, Unknown, 0.000000, 0.000000, 0.000000, 0.000000, 0.000000, 0.000000
*SEC_COUNT	=  1
*TSPEC_SIZE	=  0
*EXTRA_SIZE	=  0
*MEMO		=   

*BEGIN
*GROUP		=  0
*START		=  10.8571
*STOP		=  20.8571
*STEP		=  0.01
*OFFSET		=  31.7144
*SPEED		=  0.196312
*SLIT_SPEC	=  0, 0.500mm, 0.5, 0.000000
*SLIT_SPEC	=  1, 0.500mm, 0.5, 0.000000
*SLIT_SPEC	=  2, 0.500mm, 0.5, 0.000000
*KV		=  45
*MA		=  200
*LOW		=  0.000000
*HIGH		=  0.000000
*CTEMPER	=  0, 0.000000
*CTEMPER	=  1, 0.000000
*CTEMPER	=  2, 0.000000
*PAREX		=  0, 0.000000
*PAREX		=  1, 0.000000
*PAREX		=  2, 0.000000
*PAREX		=  3, 0.000000
*PAREX		=  4, 0.000000
*PAREX		=  5, 0.000000
*PAREX		=  6, 0.000000
*PAREX		=  7, 0.000000
*PAREX		=  8, 0.000000
*PAREX		=  9, 0.000000
*PAREX		=  10, 0.000000
*PAREX		=  11, 0.000000
*PAREX		=  12, 0.000000
*PAREX		=  13, 0.000000
*PAREX		=  14, 0.000000
*PAREX		=  15, 0.000000
*FULL_SCALE	=  1424058.4
*INDEX		=  0, 0, 0
*COUNT		=  1001
54.8214, 53.1398, 53.8066, 49.9142
55.8255, 46.9081, 45.7944, 45.1279
43.9197, 52.6023, 45.2626, 41.1061
50.764, 47.8495, 48.9276, 50.2851
62.904, 57.8391, 55.7649, 36.8439
65.7615, 58.8875, 59.6008, 42.2265
34.9063, 62.6377, 48.282, 61.8154
49.7915, 61.885, 48.9035, 64.8576
48.0968, 45.033, 62.3596, 56.8441
65.8736, 57.9008, 63.5285, 54.1936
55.7754, 71.9171, 63.0446, 60.1038
59.9496, 72.7778, 70.1333, 61.6808
73.7571, 69.8593, 55.8707, 57.9036
65.5953, 68.9226, 48.8234, 64.8502
73.8002, 53.6426, 64.7928, 58.0507
67.6974, 76.7281, 63.6278, 67.1603
71.9087, 69.7547, 72.3601, 63.7908
53.7092, 77.8927, 70.7299, 54.9241
64.1612, 71.8276, 64.948, 62.7434
81.2421, 68.7505, 74.9466, 85.5375
71.828, 68.7041, 61.8891, 87.9012
71.705, 66.7503, 85.5127, 82.1529
76.2874, 81.6265, 75.9641, 87.9718
78.7051, 78.7112, 79.7328, 85.8943
76.8602, 78.6595, 79.9994, 74.0837
80.5879, 87.1792, 74.7788, 100.915
81.6797, 94.8168, 91.951, 87.1609
101.608, 87.7537, 89.5668, 79.7624
95.9053, 80.7289, 96.5483, 85.524
85.9804, 91.7986, 84.581, 90.6498
81.5809, 87.2185, 82.6595, 106.993
82.964, 72.9072, 95.2558, 84.6748
94.5487, 110.176, 105.685, 99.0959
114.981, 90.9202, 91.0737, 83.7112
91.0178, 91.8108, 91.7568, 73.6828
102.974, 103.425, 106.682, 114.557
102.042, 96.2795, 109.611, 87.7501
117.494, 102.118, 132.336, 110.549
113.706, 106.562, 100.235, 113.686
125.885, 111.942, 126.862, 114.907
118.47, 118.828, 113.886, 128.787
100.001, 129.626, 143.941, 107.147
117.604, 124.204, 117.789, 130.913
130.874, 104.878, 134.367, 117.365
129.613, 122.88, 148.862, 141.793
123.203, 119.817, 119.814, 140.206
123.665, 136.719, 128.355, 143.185
135.168, 126.739, 169.841, 163.177
157.16, 144.449, 145.025, 129.879
139.837, 150.515, 133.137, 137.7
140.594, 167.459, 164.81, 140.283
152.954, 160.517, 171.23, 150.533
151.262, 139.793, 155.739, 157.441
158.77, 152.467, 168.078, 149.927
155.442, 181.027, 185.637, 188.421
166.765, 163.33, 169.444, 169.385
178.624, 167.492, 179.79, 195.312
175.023, 171.131, 169.718, 210.507
174.695, 174.24, 169.896, 185.972
196.686, 171.605, 212.7, 192.091
187.67, 217.133, 212.734, 193.268
236.237, 196.442, 188.577, 198.191
190.803, 197.693, 243.697, 222.953
237.54, 202.344, 202.483, 214.394
231.964, 216.08, 238.738, 226.998
193.528, 246.611, 243.903, 226.816
245.765, 251.142, 221.06, 263.192
266.037, 231.403, 241.873, 242.234
244.954, 257.471, 265.423, 244.67
240.502, 263.881, 286.877, 280.662
275.411, 277.824, 289.263, 294.519
290.072, 319.878, 271.744, 287.289
306.528, 333.088, 316.88, 282.296
320.071, 336.734, 304.021, 296.865
321.235, 316.137, 300.206, 327.542
329.65, 333.735, 319.771, 342.318
369.573, 344.215, 359.384, 349.624
339.636, 377.42, 369.934, 364.232
372.741, 390.193, 368.672, 354.56
394.063, 370.436, 376.016, 420.973
416.963, 397.564, 434.34, 437.002
417.813, 427.835, 476.431, 421.928
437.436, 491.964, 426.732, 480.181
458.457, 472.252, 494.082, 456.582
546.339, 458.539, 502.391, 478.189
446.193, 458.951, 527.942, 533.471
518.326, 518.279, 550.291, 509.409
584.392, 524.599, 579.995, 541.625
556.414, 591.09, 560.649, 622.182
597.36, 594.177, 624.435, 657.571
710.958, 637.245, 650.706, 650.241
626.897, 704.263, 650.063, 738.33
675.977, 767.619, 737.33, 741.863
717.259, 753.171, 752.491, 720.821
772.297, 829.884, 768.882, 831.642
794.25, 818.661, 873.096, 828.018
915.372, 921.115, 889.848, 930.578
906.753, 903.665, 907.43, 973.219
995.628, 980.315, 976.204, 1009.08
960.704, 988.062, 1078.94, 1078.16
1088.77, 1149.17, 1159.92, 1148.55
1220.46, 1177.33, 1130.86, 1244.97
1214.15, 1217.14, 1322.15, 1306.42
1350.48, 1303.88, 1372.46, 1389.75
1439.34, 1486.91, 1510.88, 1425
1554.15, 1527.42, 1597.52, 1655.66
1670.53, 1655.21, 1754.53, 1708.31
1727.56, 1892.87, 1927.17, 1877.24
1970.12, 2031.71, 1930.48, 2099.53
2135.69, 2174.26, 2218.58, 2285.63
2239.91, 2434.1, 2406.52, 2407.49
2536.48, 2539.89, 2729.16, 2727.43
2778.04, 2839.71, 2905.42, 2974.51
3184.5, 3167.38, 3293.22, 3406.95
3431.4, 3726.39, 3779.6, 3916.79
4047.81, 4184.48, 4319.27, 4593.27
4592.3, 4821.95, 4935.09, 5127.01
5581.25, 5771.87, 6003.75, 6439.12
6882.77, 7526.55, 8439.62, 9074.37
11121.5, 15349.6, 26281.3, 31003.8
27630.9, 28346.1, 33746.4, 42528.8
39032.9, 33599.6, 36136.8, 41943.9
43706.4, 41310.1, 38723.5, 39364.2
44359.2, 51419.7, 63135.3, 67158.4
77244.1, 94921.2, 110684, 132784
128192, 110665, 93730.4, 131159
192226, 224285, 228278, 200169
226753, 232966, 203473, 182998
149132, 103489, 85818.7, 85829.1
97079.1, 107746, 145936, 157919
148092, 156145, 158604, 129256
134046, 152534, 189201, 207819
208075, 204217, 198690, 186304
167733, 151822, 151542, 130757
106530, 88206.1, 80030.6, 76705.9
80291.6, 95326.5, 132141, 166218
151594, 139517, 131007, 145208
155270, 148386, 125194, 136589
121208, 103470, 111529, 123650
148471, 140726, 109276, 85458.7
83718.7, 83212.9, 86404.9, 84627.9
79404.9, 79736.5, 76905, 91844.7
71317.3, 64436.8, 81714.2, 74591.1
71066, 83091.4, 58351.6, 38884.3
36522.7, 35037.3, 34664, 31814.3
32272, 45700.3, 62340.7, 57647.6
51064.2, 32883.3, 24950.9, 27575.3
33823.4, 22988, 13509, 9423.7
7827.01, 6988.9, 6611.64, 6739.68
6292.66, 5808.13, 6565.9, 7089.12
7202.33, 5917.92, 4413.71, 4157
3820.64, 3620.03, 3598.75, 3401.56
3222.75, 3164.97, 3016.5, 2841.73
2767.75, 2763.23, 2710.98, 2541.69
2513.14, 2457.5, 2313.8, 2229.73
2296.84, 2217.91, 2190.4, 2037.03
2066.47, 1914.34, 1848.67, 1743.86
1779.03, 1774.87, 1743.94, 1620.63
1636.82, 1597.75, 1577.3, 1537.32
1532.92, 1445.87, 1452.58, 1433.75
1421.58, 1343.53, 1318.6, 1340.11
1291, 1238.79, 1263.68, 1228.51
1219.74, 1216.54, 1185.43, 1150.66
1164.68, 1152.78, 1097.93, 1065.81
1047.01, 1004.93, 1046.95, 1026.49
1012.92, 916.061, 949.489, 927.182
921.48, 879.245, 883.819, 896.619
896.543, 835.118, 799.667, 817.422
751.093, 764.453, 761.898, 753.678
757.612, 769.418, 749.377, 744.426
709.414, 717.731, 735.43, 676.417
679.988, 651.544, 670.887, 607.872
587.503, 604.897, 574.134, 613.44
636.233, 582.891, 564.783, 587.944
582.665, 620.244, 552.689, 561.354
538.117, 502.319, 494.336, 493.064
507.629, 459.631, 454.34, 433.403
445.472, 452.826, 475.135, 428.968
420.255, 415.167, 448.552, 445.583
428.337, 334.621, 361.479, 431.143
377.806, 391.765, 410.427, 352.009
370.997, 384.17, 387.421, 351.394
379.449, 360.457, 367.274, 342.659
363.276, 338.082, 329.63, 318.588
298.419, 339.739, 305.607, 308.638
314.059, 284.659, 299.127, 318.654
282.546, 302.089, 300.376, 291.954
272.651, 266.222, 285.868, 270.693
322.383, 287.095, 274.823, 265.131
246.783, 250.98, 236.522, 250.828
267.562, 248.126, 255.504, 250.603
255.979, 275.981, 227.84, 240.589
257.332, 237.272, 219.701, 275.548
272.786, 254.986, 223.61, 213.098
229.175, 202.69, 216.87, 209.765
233.18, 213.455, 197.055, 226.902
195.692, 193.773, 211.077, 191.657
228.888, 215.159, 203.005, 180.962
223.309, 191.544, 187.06, 181.555
177.188, 172.001, 164.947, 178.48
187.871, 164.947, 161.142, 172.582
162.007, 175.59, 146.56, 179.049
146.363, 171.424, 161.616, 148.704
136.694, 148.938, 147.529, 144.915
153.881, 164.237, 158.661, 160.896
169.178, 176.357, 140.924, 143.881
165.138, 147.044, 132.494, 154.003
139.225, 148.503, 132.083, 134.45
128.499, 112.87, 131.363, 121.833
143.279, 124.311, 129.109, 120.539
113.755, 126.788, 99.1277, 96.9839
122.011, 117.882, 109.589, 114.427
122.858, 110.487, 109.91, 108.41
118.08, 112.836, 119.686, 107.807
131.988, 98.4374, 107.183, 108.235
105.284, 116.495, 122.197, 112.653
92.5018, 114.543, 92.7735, 125.43
120.865, 104.348, 92.7313, 85.5979
109.04, 106.689, 105.881, 107.776
116.579, 97.9599, 96.8959, 94.122
99.7449, 97.7663, 102.935, 102.508
93.9364, 86, 83.5586, 104.04
83.4937, 95.4916, 85.6536, 89.2682
87.8425, 104.88, 74.9776, 95.9413
73.8039, 72.6486, 70.9572, 86.198
87.5139, 80.1, 104.18, 66.6838
94.5455, 73.9345, 85.6874, 81.2248
87.5575, 73.7497, 73.7277, 70.594
86.7701, 73.6869, 83.0567, 88.9684
85.4412, 74.0602, 67.9904, 102.777
77.043, 78.8447, 71.8053, 65.853
77.8279, 70.8362, 68.9034, 71.3621
60.8185, 81.042, 72.3053, 82.2725
67.136, 56.8629, 76.8647, 73.0749
56.9416, 80.087, 51.8487, 63.8448
67.8411, 59.0167, 52.8948, 69.6869
66.842, 66.896, 61.7656, 57.7856
81.9471, 45.8194, 60.9952, 70.1102
55.8528, 76.514, 50.8258, 63.3655
59.7779, 60.9195, 49.8813, 38.9041
49.0726, 49.9072, 61.7426, 54.8194
59.9691, 46.8125, 47.7855, 50.4458
66.5147, 47.905, 48.693, 62.2705
47.0391, 47.7986, 47.8976, 59.1231
50.1965, 46.9817, 50.9601, 58.3558
51.968, 48.8777, 43.2407, 61.4022
37.8167, 51.9481, 36.2734, 42.9306
34.1261, 33.0838, 38.9825, 63.5433
49.1332, 53.713, 46.8839, 55.5986
31.1798, 38.9709, 29.7903, 48.9245
36.8601
*END

*EOF
