*RAS_DATA_START
*RAS_HEADER_START
*DISP_FMT_X "%.2f"
*DISP_FMT_Y "%.0f"
*DISP_FULLSCALE "177346.6638979531"
*DISP_LINE_COLOR "255.0000000000"
*DISP_LINE_STYLE "0.0000000000"
*DISP_LINE_WIDTH "0.2500000000"
*DISP_NOTE "測定データ-5"
*DISP_OFFSET_Y "0.0000000000"
*DISP_PEAKSEARCH_UNIT_Y "cps"
*DISP_RANGE_BOTTOM "0.0000000000"
*DISP_RANGE_LEFT "20.0000000000"
*DISP_RANGE_LOGCUTOFF "0.0100000000"
*DISP_RANGE_RIGHT "90.0000000000"
*DISP_RANGE_TOP "177346.6638979531"
*DISP_SCALE_MODE_Y "0.0000000000"
*DISP_TAB_NAME "2θ/ω"
*DISP_TITLE_Y "強度"
*DISP_UNIT_Y "cps"
*DISP_WINDOW_NAME "MSG_MACROENGINE"
*FILE_COMMENT " "
*FILE_MD5 ""
*FILE_MEMO " "
*FILE_OPERATOR "administrator"
*FILE_PART_ID "MEAS_KHP2_00061"
*FILE_SAMPLE "A56"
*FILE_TYPE "RAS_RAW"
*FILE_USERGROUP "システムマネージャ"
*FILE_VERSION "1.0000000000"
*HW_ATTACHMENT_ID "ATT0022"
*HW_ATTACHMENT_NAME "RxRy|RxRy"
*HW_COUNTER_ID-0 "CUT0021"
*HW_COUNTER_ID-1 "CUT0051"
*HW_COUNTER_ID-2 "CUT0020"
*HW_COUNTER_ID-3 "CSL0021"
*HW_COUNTER_ID-4 "CMC0021"
*HW_COUNTER_NAME-0 "SC-70|SC-70"
*HW_COUNTER_NAME-1 "HyPix 3000(H)|HyPix 3000(H)"
*HW_COUNTER_NAME-2 "None|None"
*HW_COUNTER_NAME-3 "BBM|BBM"
*HW_COUNTER_NAME-4 "検出器モノクロメータ|Detector monochromator"
*HW_COUNTER_SELECT_NAME "HyPix 3000(H)|HyPix 3000(H)"
*HW_GONIOMETER_ID "GON0024"
*HW_GONIOMETER_NAME "SmartLab(In-plane)|SmartLab(In-plane)"
*HW_GONIOMETER_RADIUS-0 "90.0"
*HW_GONIOMETER_RADIUS-1 "114.0"
*HW_GONIOMETER_RADIUS-2 "190.0"
*HW_GONIOMETER_RADIUS-3 "300.0"
*HW_GONIOMETER_RADIUS-4 "187.0"
*HW_GONIOMETER_RADIUS-5 "300.0"
*HW_GONIOMETER_RADIUS-6 "113.0"
*HW_GONIOMETER_RADIUS-7 "331.0"
*HW_I_OPT_ID-0 "CBO0021"
*HW_I_OPT_ID-1 "ICR0021"
*HW_I_OPT_ID-2 "ISL0021"
*HW_I_OPT_ID-3 "ISO0021"
*HW_I_OPT_ID-4 "IAD0021"
*HW_I_OPT_ID-5 "IPR0001"
*HW_I_OPT_NAME-0 "CBOユニット|CBO unit"
*HW_I_OPT_NAME-1 "標準入射光学ユニット|Standard incident optical unit"
*HW_I_OPT_NAME-2 "標準入射スリットボックス|Standard incident slit box"
*HW_I_OPT_NAME-3 "入射平行スリット|Incident parallel slit"
*HW_I_OPT_NAME-4 "長手制限スリット|Length limiting slit"
*HW_I_OPT_NAME-5 "None|None"
*HW_R_ATTENUATER_AUTOMODE "0"
*HW_R_OPT_ID-0 "RSS0022"
*HW_R_OPT_ID-1 "RCR0022"
*HW_R_OPT_ID-2 "RSO0021"
*HW_R_OPT_ID-3 "RRS0022"
*HW_R_OPT_ID-4 "ATN0020"
*HW_R_OPT_ID-5 "RFL0021"
*HW_R_OPT_ID-6 "RAD0021"
*HW_R_OPT_NAME-0 "受光スリットボックス1(Zr軸付)|Receiving slit box # 1 (w/ Zr Axis)"
*HW_R_OPT_NAME-1 "標準受光光学ユニット1|Standard receiving unit # 1"
*HW_R_OPT_NAME-2 "標準受光光学ユニット2|Standard receiving optical unit # 2"
*HW_R_OPT_NAME-3 "仮想受光スリット2|Virtual receiving slit #2"
*HW_R_OPT_NAME-4 "無し|None"
*HW_R_OPT_NAME-5 "Cu Kβ|Cu K-beta"
*HW_R_OPT_NAME-6 "調整用受光スリット|Alignment receiving slit"
*HW_SAMPLE_HOLDER_ID "SMP0021"
*HW_SAMPLE_HOLDER_NAME "χφZクレードル|Chi phi Z cradle"
*HW_XG_CURRENT_MAX "200"
*HW_XG_CURRENT_MIN "10"
*HW_XG_CURRENT_RESOLUTION "1"
*HW_XG_CURRENT_UNIT "mA"
*HW_XG_FOCUS "0.4mm x 8mm"
*HW_XG_FOCUS_TYPE "Normal"
*HW_XG_ID "1700"
*HW_XG_NAME "9kW 開放管(45kV 200mA ID:1700)|9kW Rotating anode(45kV 200mA ID:1700)"
*HW_XG_TARGET_ATOMIC_NUMBER "29.0000000000"
*HW_XG_TARGET_NAME "Cu"
*HW_XG_TYPE "Rota"
*HW_XG_VOLTAGE_MAX "45"
*HW_XG_VOLTAGE_MIN "20"
*HW_XG_VOLTAGE_RESOLUTION "1"
*HW_XG_VOLTAGE_UNIT "kV"
*HW_XG_WATT_MAX "9"
*HW_XG_WATT_UNIT "kW"
*HW_XG_WAVE_LENGTH_ALPHA1 "1.540593"
*HW_XG_WAVE_LENGTH_ALPHA2 "1.544414"
*HW_XG_WAVE_LENGTH_BETA "1.392250"
*MEAS_COND_AXIS_NAME-0 "2θ/θ"
*MEAS_COND_AXIS_NAME-1 "2θ"
*MEAS_COND_AXIS_NAME-2 "ω"
*MEAS_COND_AXIS_NAME-3 "χ"
*MEAS_COND_AXIS_NAME-4 "φ"
*MEAS_COND_AXIS_NAME-5 "Z"
*MEAS_COND_AXIS_NAME-6 "Rx"
*MEAS_COND_AXIS_NAME-7 "Ry"
*MEAS_COND_AXIS_NAME-8 "2θ/ω"
*MEAS_COND_AXIS_NAME-9 "2θχ"
*MEAS_COND_AXIS_NAME-10 "2θχ/φ"
*MEAS_COND_AXIS_NAME-11 "α"
*MEAS_COND_AXIS_NAME-12 "β"
*MEAS_COND_AXIS_NAME-13 "θs"
*MEAS_COND_AXIS_NAME-14 "θd"
*MEAS_COND_AXIS_NAME-15 "Ts"
*MEAS_COND_AXIS_NAME-16 "CBO選択スリット"
*MEAS_COND_AXIS_NAME-17 "M"
*MEAS_COND_AXIS_NAME-18 "入射平行スリット"
*MEAS_COND_AXIS_NAME-19 "入射スリット"
*MEAS_COND_AXIS_NAME-20 ""
*MEAS_COND_AXIS_NAME-21 "Zs"
*MEAS_COND_AXIS_NAME-22 "入射光学素子"
*MEAS_COND_AXIS_NAME-23 "ωm"
*MEAS_COND_AXIS_NAME-24 "長手制限スリット"
*MEAS_COND_AXIS_NAME-25 "センタースリット"
*MEAS_COND_AXIS_NAME-26 "フィルター"
*MEAS_COND_AXIS_NAME-27 "受光スリット1"
*MEAS_COND_AXIS_NAME-28 "受光スリット2"
*MEAS_COND_AXIS_NAME-29 "受光光学素子"
*MEAS_COND_AXIS_NAME-30 "受光平行スリット"
*MEAS_COND_AXIS_NAME-31 "調整用受光スリット"
*MEAS_COND_AXIS_NAME-32 ""
*MEAS_COND_AXIS_NAME-33 ""
*MEAS_COND_AXIS_NAME-34 "Zd"
*MEAS_COND_AXIS_NAME-35 "アッテネータ"
*MEAS_COND_AXIS_NAME-36 "検出器モノクロメータ"
*MEAS_COND_AXIS_NAME-37 "モノクロメータスリット"
*MEAS_COND_AXIS_NAME-38 "2θB"
*MEAS_COND_AXIS_NAME-39 ""
*MEAS_COND_AXIS_NAME-40 ""
*MEAS_COND_AXIS_NAME-41 "Zr"
*MEAS_COND_AXIS_NAME-42 "プライマリビーム"
*MEAS_COND_AXIS_NAME_INTERNAL-0 "TwoThetaTheta"
*MEAS_COND_AXIS_NAME_INTERNAL-1 "TwoTheta"
*MEAS_COND_AXIS_NAME_INTERNAL-2 "Omega"
*MEAS_COND_AXIS_NAME_INTERNAL-3 "Chi"
*MEAS_COND_AXIS_NAME_INTERNAL-4 "Phi"
*MEAS_COND_AXIS_NAME_INTERNAL-5 "Z"
*MEAS_COND_AXIS_NAME_INTERNAL-6 "Rx"
*MEAS_COND_AXIS_NAME_INTERNAL-7 "Ry"
*MEAS_COND_AXIS_NAME_INTERNAL-8 "TwoThetaOmega"
*MEAS_COND_AXIS_NAME_INTERNAL-9 "TwoThetaChi"
*MEAS_COND_AXIS_NAME_INTERNAL-10 "TwoThetaChiPhi"
*MEAS_COND_AXIS_NAME_INTERNAL-11 "Alpha"
*MEAS_COND_AXIS_NAME_INTERNAL-12 "Beta"
*MEAS_COND_AXIS_NAME_INTERNAL-13 "ThetaS"
*MEAS_COND_AXIS_NAME_INTERNAL-14 "ThetaD"
*MEAS_COND_AXIS_NAME_INTERNAL-15 "Ts"
*MEAS_COND_AXIS_NAME_INTERNAL-16 "CBO"
*MEAS_COND_AXIS_NAME_INTERNAL-17 "CBO-M"
*MEAS_COND_AXIS_NAME_INTERNAL-18 "IncidentSollerSlit"
*MEAS_COND_AXIS_NAME_INTERNAL-19 "IncidentSlitBox"
*MEAS_COND_AXIS_NAME_INTERNAL-20 "IncidentSlitBox-_Axis"
*MEAS_COND_AXIS_NAME_INTERNAL-21 "Zs"
*MEAS_COND_AXIS_NAME_INTERNAL-22 "IncidentMonochromator"
*MEAS_COND_AXIS_NAME_INTERNAL-23 "IncidentMonochromator-OmegaM"
*MEAS_COND_AXIS_NAME_INTERNAL-24 "IncidentAxdSlit"
*MEAS_COND_AXIS_NAME_INTERNAL-25 "CenterSlit"
*MEAS_COND_AXIS_NAME_INTERNAL-26 "Filter"
*MEAS_COND_AXIS_NAME_INTERNAL-27 "ReceivingSlitBox1"
*MEAS_COND_AXIS_NAME_INTERNAL-28 "ReceivingSlitBox2"
*MEAS_COND_AXIS_NAME_INTERNAL-29 "ReceivingOptics"
*MEAS_COND_AXIS_NAME_INTERNAL-30 "ReceivingSollerSlit"
*MEAS_COND_AXIS_NAME_INTERNAL-31 "ReceivingAxdSlit"
*MEAS_COND_AXIS_NAME_INTERNAL-32 "ReceivingSlitBox1-_Axis"
*MEAS_COND_AXIS_NAME_INTERNAL-33 "ReceivingSlitBox2-_Axis"
*MEAS_COND_AXIS_NAME_INTERNAL-34 "ReceivingSlitBox2-Zd"
*MEAS_COND_AXIS_NAME_INTERNAL-35 "Attenuator"
*MEAS_COND_AXIS_NAME_INTERNAL-36 "CounterMonochromator"
*MEAS_COND_AXIS_NAME_INTERNAL-37 "CounterSlit"
*MEAS_COND_AXIS_NAME_INTERNAL-38 "TwoThetaB"
*MEAS_COND_AXIS_NAME_INTERNAL-39 "AlphaR"
*MEAS_COND_AXIS_NAME_INTERNAL-40 "BetaR"
*MEAS_COND_AXIS_NAME_INTERNAL-41 "ReceivingSlitBox1-Zr"
*MEAS_COND_AXIS_NAME_INTERNAL-42 "IncidentPrimary"
*MEAS_COND_AXIS_NAME_MAGICNO-0 "83951616.0000000000"
*MEAS_COND_AXIS_NAME_MAGICNO-1 "268632064.0000000000"
*MEAS_COND_AXIS_NAME_MAGICNO-2 "268500992.0000000000"
*MEAS_COND_AXIS_NAME_MAGICNO-3 "268500992.0000000000"
*MEAS_COND_AXIS_NAME_MAGICNO-4 "268500992.0000000000"
*MEAS_COND_AXIS_NAME_MAGICNO-5 "285278208.0000000000"
*MEAS_COND_AXIS_NAME_MAGICNO-6 "285278208.0000000000"
*MEAS_COND_AXIS_NAME_MAGICNO-7 "285278208.0000000000"
*MEAS_COND_AXIS_NAME_MAGICNO-8 "83951616.0000000000"
*MEAS_COND_AXIS_NAME_MAGICNO-9 "268632064.0000000000"
*MEAS_COND_AXIS_NAME_MAGICNO-10 "83951616.0000000000"
*MEAS_COND_AXIS_NAME_MAGICNO-11 "17039360.0000000000"
*MEAS_COND_AXIS_NAME_MAGICNO-12 "17039360.0000000000"
*MEAS_COND_AXIS_NAME_MAGICNO-13 "131072.0000000000"
*MEAS_COND_AXIS_NAME_MAGICNO-14 "131072.0000000000"
*MEAS_COND_AXIS_NAME_MAGICNO-15 "318898176.0000000000"
*MEAS_COND_AXIS_NAME_MAGICNO-16 "20971521.0000000000"
*MEAS_COND_AXIS_NAME_MAGICNO-17 "285343744.0000000000"
*MEAS_COND_AXIS_NAME_MAGICNO-18 "20971521.0000000000"
*MEAS_COND_AXIS_NAME_MAGICNO-19 "22020097.0000000000"
*MEAS_COND_AXIS_NAME_MAGICNO-20 "25165824.0000000000"
*MEAS_COND_AXIS_NAME_MAGICNO-21 "318898176.0000000000"
*MEAS_COND_AXIS_NAME_MAGICNO-22 "20971521.0000000000"
*MEAS_COND_AXIS_NAME_MAGICNO-23 "285343744.0000000000"
*MEAS_COND_AXIS_NAME_MAGICNO-24 "20971521.0000000000"
*MEAS_COND_AXIS_NAME_MAGICNO-25 "20971521.0000000000"
*MEAS_COND_AXIS_NAME_MAGICNO-26 "20971521.0000000000"
*MEAS_COND_AXIS_NAME_MAGICNO-27 "23068673.0000000000"
*MEAS_COND_AXIS_NAME_MAGICNO-28 "23068673.0000000000"
*MEAS_COND_AXIS_NAME_MAGICNO-29 "20971521.0000000000"
*MEAS_COND_AXIS_NAME_MAGICNO-30 "20971521.0000000000"
*MEAS_COND_AXIS_NAME_MAGICNO-31 "20971521.0000000000"
*MEAS_COND_AXIS_NAME_MAGICNO-32 "25165824.0000000000"
*MEAS_COND_AXIS_NAME_MAGICNO-33 "25165824.0000000000"
*MEAS_COND_AXIS_NAME_MAGICNO-34 "285343744.0000000000"
*MEAS_COND_AXIS_NAME_MAGICNO-35 "0.0000000000"
*MEAS_COND_AXIS_NAME_MAGICNO-36 "20971521.0000000000"
*MEAS_COND_AXIS_NAME_MAGICNO-37 "20971521.0000000000"
*MEAS_COND_AXIS_NAME_MAGICNO-38 "17039360.0000000000"
*MEAS_COND_AXIS_NAME_MAGICNO-39 "8388608.0000000000"
*MEAS_COND_AXIS_NAME_MAGICNO-40 "8388608.0000000000"
*MEAS_COND_AXIS_NAME_MAGICNO-41 "285343744.0000000000"
*MEAS_COND_AXIS_NAME_MAGICNO-42 "20971521.0000000000"
*MEAS_COND_AXIS_OFFSET-0 "-"
*MEAS_COND_AXIS_OFFSET-1 "0.8440000000"
*MEAS_COND_AXIS_OFFSET-2 "1.5173000000"
*MEAS_COND_AXIS_OFFSET-3 "0.0000000000"
*MEAS_COND_AXIS_OFFSET-4 "0.0000000000"
*MEAS_COND_AXIS_OFFSET-5 "-"
*MEAS_COND_AXIS_OFFSET-6 "-"
*MEAS_COND_AXIS_OFFSET-7 "-"
*MEAS_COND_AXIS_OFFSET-8 "-"
*MEAS_COND_AXIS_OFFSET-9 "0.0000000000"
*MEAS_COND_AXIS_OFFSET-10 "-"
*MEAS_COND_AXIS_OFFSET-11 "-"
*MEAS_COND_AXIS_OFFSET-12 "-"
*MEAS_COND_AXIS_OFFSET-13 "1.5173000000"
*MEAS_COND_AXIS_OFFSET-14 "-0.6733000000"
*MEAS_COND_AXIS_OFFSET-15 "-"
*MEAS_COND_AXIS_OFFSET-16 "-"
*MEAS_COND_AXIS_OFFSET-17 "-"
*MEAS_COND_AXIS_OFFSET-18 "-"
*MEAS_COND_AXIS_OFFSET-19 "-"
*MEAS_COND_AXIS_OFFSET-20 "-"
*MEAS_COND_AXIS_OFFSET-21 "-"
*MEAS_COND_AXIS_OFFSET-22 "-"
*MEAS_COND_AXIS_OFFSET-23 "-"
*MEAS_COND_AXIS_OFFSET-24 "-"
*MEAS_COND_AXIS_OFFSET-25 "-"
*MEAS_COND_AXIS_OFFSET-26 "-"
*MEAS_COND_AXIS_OFFSET-27 "-"
*MEAS_COND_AXIS_OFFSET-28 "-"
*MEAS_COND_AXIS_OFFSET-29 "-"
*MEAS_COND_AXIS_OFFSET-30 "-"
*MEAS_COND_AXIS_OFFSET-31 "-"
*MEAS_COND_AXIS_OFFSET-32 "-"
*MEAS_COND_AXIS_OFFSET-33 "-"
*MEAS_COND_AXIS_OFFSET-34 "-"
*MEAS_COND_AXIS_OFFSET-35 "-"
*MEAS_COND_AXIS_OFFSET-36 "-"
*MEAS_COND_AXIS_OFFSET-37 "-"
*MEAS_COND_AXIS_OFFSET-38 "-"
*MEAS_COND_AXIS_OFFSET-39 "0.0000000000"
*MEAS_COND_AXIS_OFFSET-40 "0.0000000000"
*MEAS_COND_AXIS_OFFSET-41 "-"
*MEAS_COND_AXIS_OFFSET-42 "-"
*MEAS_COND_AXIS_POSITION-0 "20.0000000000"
*MEAS_COND_AXIS_POSITION-1 "20.0000000000"
*MEAS_COND_AXIS_POSITION-2 "10.0000000000"
*MEAS_COND_AXIS_POSITION-3 "0.6110000000"
*MEAS_COND_AXIS_POSITION-4 "-2.4900000000"
*MEAS_COND_AXIS_POSITION-5 "-0.5154000000"
*MEAS_COND_AXIS_POSITION-6 "0.0000000000"
*MEAS_COND_AXIS_POSITION-7 "0.0000000000"
*MEAS_COND_AXIS_POSITION-8 "20.0000000000"
*MEAS_COND_AXIS_POSITION-9 "0.0000000000"
*MEAS_COND_AXIS_POSITION-10 "0.0000000000"
*MEAS_COND_AXIS_POSITION-11 "90.0000000000"
*MEAS_COND_AXIS_POSITION-12 "0.0000000000"
*MEAS_COND_AXIS_POSITION-13 "10.0000000000"
*MEAS_COND_AXIS_POSITION-14 "10.0000000000"
*MEAS_COND_AXIS_POSITION-15 "-5.8605600000"
*MEAS_COND_AXIS_POSITION-16 "PB"
*MEAS_COND_AXIS_POSITION-17 "0.0000000000"
*MEAS_COND_AXIS_POSITION-18 "Soller_slit_open_s"
*MEAS_COND_AXIS_POSITION-19 "0.500mm"
*MEAS_COND_AXIS_POSITION-20 "0.5000000000"
*MEAS_COND_AXIS_POSITION-21 "-1.6178100000"
*MEAS_COND_AXIS_POSITION-22 "Ge(220)x2"
*MEAS_COND_AXIS_POSITION-23 "0.0000000000"
*MEAS_COND_AXIS_POSITION-24 "2.0mm"
*MEAS_COND_AXIS_POSITION-25 "None"
*MEAS_COND_AXIS_POSITION-26 "None"
*MEAS_COND_AXIS_POSITION-27 "0.500mm"
*MEAS_COND_AXIS_POSITION-28 "0.500mm"
*MEAS_COND_AXIS_POSITION-29 "PSA_open"
*MEAS_COND_AXIS_POSITION-30 "Soller_slit_5.0deg"
*MEAS_COND_AXIS_POSITION-31 "None"
*MEAS_COND_AXIS_POSITION-32 "0.5000000000"
*MEAS_COND_AXIS_POSITION-33 "0.5000000000"
*MEAS_COND_AXIS_POSITION-34 "0.0000000000"
*MEAS_COND_AXIS_POSITION-35 "-"
*MEAS_COND_AXIS_POSITION-36 "No_unit"
*MEAS_COND_AXIS_POSITION-37 "None"
*MEAS_COND_AXIS_POSITION-38 "20.0000000000"
*MEAS_COND_AXIS_POSITION-39 "0.0000000000"
*MEAS_COND_AXIS_POSITION-40 "0.0000000000"
*MEAS_COND_AXIS_POSITION-41 "-0.3859400000"
*MEAS_COND_AXIS_POSITION-42 "None"
*MEAS_COND_AXIS_UNIT-0 "deg"
*MEAS_COND_AXIS_UNIT-1 "deg"
*MEAS_COND_AXIS_UNIT-2 "deg"
*MEAS_COND_AXIS_UNIT-3 "deg"
*MEAS_COND_AXIS_UNIT-4 "deg"
*MEAS_COND_AXIS_UNIT-5 "mm"
*MEAS_COND_AXIS_UNIT-6 "deg"
*MEAS_COND_AXIS_UNIT-7 "deg"
*MEAS_COND_AXIS_UNIT-8 "deg"
*MEAS_COND_AXIS_UNIT-9 "deg"
*MEAS_COND_AXIS_UNIT-10 "deg"
*MEAS_COND_AXIS_UNIT-11 "deg"
*MEAS_COND_AXIS_UNIT-12 "deg"
*MEAS_COND_AXIS_UNIT-13 "deg"
*MEAS_COND_AXIS_UNIT-14 "deg"
*MEAS_COND_AXIS_UNIT-15 "mm"
*MEAS_COND_AXIS_UNIT-16 ""
*MEAS_COND_AXIS_UNIT-17 "pulse"
*MEAS_COND_AXIS_UNIT-18 ""
*MEAS_COND_AXIS_UNIT-19 ""
*MEAS_COND_AXIS_UNIT-20 "mm"
*MEAS_COND_AXIS_UNIT-21 "mm"
*MEAS_COND_AXIS_UNIT-22 ""
*MEAS_COND_AXIS_UNIT-23 "pulse"
*MEAS_COND_AXIS_UNIT-24 ""
*MEAS_COND_AXIS_UNIT-25 ""
*MEAS_COND_AXIS_UNIT-26 ""
*MEAS_COND_AXIS_UNIT-27 ""
*MEAS_COND_AXIS_UNIT-28 ""
*MEAS_COND_AXIS_UNIT-29 ""
*MEAS_COND_AXIS_UNIT-30 ""
*MEAS_COND_AXIS_UNIT-31 ""
*MEAS_COND_AXIS_UNIT-32 "mm"
*MEAS_COND_AXIS_UNIT-33 "mm"
*MEAS_COND_AXIS_UNIT-34 "mm"
*MEAS_COND_AXIS_UNIT-35 ""
*MEAS_COND_AXIS_UNIT-36 ""
*MEAS_COND_AXIS_UNIT-37 ""
*MEAS_COND_AXIS_UNIT-38 "deg"
*MEAS_COND_AXIS_UNIT-39 "deg"
*MEAS_COND_AXIS_UNIT-40 "deg"
*MEAS_COND_AXIS_UNIT-41 "mm"
*MEAS_COND_AXIS_UNIT-42 ""
*MEAS_COND_COUNTER_CNTLOSS_CORR "0.0000000000"
*MEAS_COND_COUNTER_TAUDIFF "0.0000000000"
*MEAS_COND_COUNTER_TAUINT "0.0000000000"
*MEAS_COND_COUNTER_TEMP_CONDITION "NORMAL"
*MEAS_COND_IRRADIATION_MODE "OFF"
*MEAS_COND_IRRADIATION_WIDTH ""
*MEAS_COND_OPT_ATTR "高分解能平行ビームGe(220)x2/受光スリット"
*MEAS_COND_OPT_NAME "@高分解能PB-Ge(220)x2"
*MEAS_COND_UNSYMMETRIC_MODE "OFF"
*MEAS_COND_XG_CURRENT "200.0000000000"
*MEAS_COND_XG_VOLTAGE "45.0000000000"
*MEAS_COND_XG_WAVE_TYPE "Ka1"
*MEAS_DATA_COUNT "7001.0000000000"
*MEAS_SCAN_AXIS_X "2θ/ω"
*MEAS_SCAN_AXIS_X_INTERNAL "TwoThetaOmega"
*MEAS_SCAN_END_TIME "06/13/19 17:02:24"
*MEAS_SCAN_MODE "CONTINUOUS"
*MEAS_SCAN_MONITOR "0"
*MEAS_SCAN_RESOLUTION_X "0.0002"
*MEAS_SCAN_SPEED "3.056366"
*MEAS_SCAN_SPEED_UNIT "deg/min"
*MEAS_SCAN_SPEED_USER "3.000000"
*MEAS_SCAN_START "20.0000000000"
*MEAS_SCAN_START_TIME "06/13/19 16:38:52"
*MEAS_SCAN_STEP "0.0100000000"
*MEAS_SCAN_STOP "90.0000000000"
*MEAS_SCAN_UNIT_X "deg"
*MEAS_SCAN_UNIT_Y "counts"
*RAS_HEADER_END
*RAS_INT_START
20.0000 0.9675 1.0000
20.0100 0.0000 1.0000
20.0200 0.9922 1.0000
20.0300 0.9720 1.0000
20.0400 0.0000 1.0000
20.0500 3.9556 1.0000
20.0600 0.9886 1.0000
20.0700 0.0000 1.0000
20.0800 2.0076 1.0000
20.0900 0.0000 1.0000
20.1000 2.9706 1.0000
20.1100 2.9993 1.0000
20.1200 0.9710 1.0000
20.1300 3.9711 1.0000
20.1400 1.0137 1.0000
20.1500 0.9710 1.0000
20.1600 1.9790 1.0000
20.1700 0.9822 1.0000
20.1800 1.0277 1.0000
20.1900 1.0058 1.0000
20.2000 0.9930 1.0000
20.2100 0.9890 1.0000
20.2200 1.9720 1.0000
20.2300 3.9770 1.0000
20.2400 3.9666 1.0000
20.2500 1.0172 1.0000
20.2600 2.0030 1.0000
20.2700 1.9976 1.0000
20.2800 0.9853 1.0000
20.2900 0.0000 1.0000
20.3000 0.9531 1.0000
20.3100 0.0000 1.0000
20.3200 2.9604 1.0000
20.3300 0.9890 1.0000
20.3400 1.0009 1.0000
20.3500 1.9685 1.0000
20.3600 0.9943 1.0000
20.3700 1.0110 1.0000
20.3800 0.9921 1.0000
20.3900 0.0000 1.0000
20.4000 1.9896 1.0000
20.4100 2.9680 1.0000
20.4200 0.0000 1.0000
20.4300 1.0009 1.0000
20.4400 0.9843 1.0000
20.4500 1.0045 1.0000
20.4600 1.0072 1.0000
20.4700 1.0014 1.0000
20.4800 1.9755 1.0000
20.4900 2.0025 1.0000
20.5000 0.0000 1.0000
20.5100 0.0000 1.0000
20.5200 0.9969 1.0000
20.5300 0.9880 1.0000
20.5400 0.9766 1.0000
20.5500 0.9852 1.0000
20.5600 0.0000 1.0000
20.5700 0.0000 1.0000
20.5800 1.9717 1.0000
20.5900 0.0000 1.0000
20.6000 0.0000 1.0000
20.6100 1.9959 1.0000
20.6200 6.0271 1.0000
20.6300 0.9922 1.0000
20.6400 1.9884 1.0000
20.6500 0.9953 1.0000
20.6600 0.9981 1.0000
20.6700 1.9950 1.0000
20.6800 1.0178 1.0000
20.6900 0.9976 1.0000
20.7000 0.9855 1.0000
20.7100 2.9075 1.0000
20.7200 2.0006 1.0000
20.7300 1.9775 1.0000
20.7400 0.0000 1.0000
20.7500 1.0053 1.0000
20.7600 2.9916 1.0000
20.7700 0.0000 1.0000
20.7800 3.9703 1.0000
20.7900 0.9996 1.0000
20.8000 1.9899 1.0000
20.8100 2.0053 1.0000
20.8200 0.0000 1.0000
20.8300 2.0211 1.0000
20.8400 2.9918 1.0000
20.8500 0.0000 1.0000
20.8600 0.0000 1.0000
20.8700 3.0165 1.0000
20.8800 0.9890 1.0000
20.8900 0.0000 1.0000
20.9000 0.9841 1.0000
20.9100 3.9525 1.0000
20.9200 0.9984 1.0000
20.9300 2.0058 1.0000
20.9400 1.9918 1.0000
20.9500 1.9861 1.0000
20.9600 0.0000 1.0000
20.9700 1.9823 1.0000
20.9800 1.9783 1.0000
20.9900 0.0000 1.0000
21.0000 2.9981 1.0000
21.0100 0.9977 1.0000
21.0200 0.9781 1.0000
21.0300 3.9707 1.0000
21.0400 0.0000 1.0000
21.0500 0.9781 1.0000
21.0600 3.0147 1.0000
21.0700 2.9376 1.0000
21.0800 0.0000 1.0000
21.0900 0.0000 1.0000
21.1000 1.9979 1.0000
21.1100 2.0101 1.0000
21.1200 0.0000 1.0000
21.1300 0.0000 1.0000
21.1400 3.9587 1.0000
21.1500 1.9738 1.0000
21.1600 2.9835 1.0000
21.1700 4.0078 1.0000
21.1800 3.9616 1.0000
21.1900 1.9906 1.0000
21.2000 5.0058 1.0000
21.2100 0.9835 1.0000
21.2200 1.9843 1.0000
21.2300 0.9865 1.0000
21.2400 1.0010 1.0000
21.2500 5.9502 1.0000
21.2600 2.9912 1.0000
21.2700 1.0066 1.0000
21.2800 1.0208 1.0000
21.2900 3.0060 1.0000
21.3000 4.9702 1.0000
21.3100 0.9835 1.0000
21.3200 1.9874 1.0000
21.3300 0.0000 1.0000
21.3400 0.9803 1.0000
21.3500 0.9901 1.0000
21.3600 0.0000 1.0000
21.3700 0.9800 1.0000
21.3800 4.9781 1.0000
21.3900 3.9138 1.0000
21.4000 0.0000 1.0000
21.4100 1.0115 1.0000
21.4200 0.9990 1.0000
21.4300 3.9916 1.0000
21.4400 0.9984 1.0000
21.4500 1.0251 1.0000
21.4600 0.0000 1.0000
21.4700 1.9960 1.0000
21.4800 1.0058 1.0000
21.4900 0.9977 1.0000
21.5000 1.9920 1.0000
21.5100 2.9913 1.0000
21.5200 2.0503 1.0000
21.5300 0.9958 1.0000
21.5400 0.9922 1.0000
21.5500 1.9889 1.0000
21.5600 3.9979 1.0000
21.5700 1.9493 1.0000
21.5800 1.9794 1.0000
21.5900 2.9490 1.0000
21.6000 2.0091 1.0000
21.6100 4.9552 1.0000
21.6200 1.0020 1.0000
21.6300 1.9777 1.0000
21.6400 1.9962 1.0000
21.6500 0.9954 1.0000
21.6600 0.0000 1.0000
21.6700 0.0000 1.0000
21.6800 0.9996 1.0000
21.6900 1.9879 1.0000
21.7000 0.0000 1.0000
21.7100 2.0048 1.0000
21.7200 0.0000 1.0000
21.7300 1.1415 1.0000
21.7400 2.9916 1.0000
21.7500 0.9982 1.0000
21.7600 1.9442 1.0000
21.7700 0.9691 1.0000
21.7800 2.9421 1.0000
21.7900 1.9961 1.0000
21.8000 0.0000 1.0000
21.8100 2.0249 1.0000
21.8200 0.0000 1.0000
21.8300 0.0000 1.0000
21.8400 1.9967 1.0000
21.8500 0.9794 1.0000
21.8600 3.0035 1.0000
21.8700 1.0090 1.0000
21.8800 0.0000 1.0000
21.8900 1.9594 1.0000
21.9000 0.9829 1.0000
21.9100 0.0000 1.0000
21.9200 2.9896 1.0000
21.9300 0.0000 1.0000
21.9400 0.0000 1.0000
21.9500 1.9946 1.0000
21.9600 1.9797 1.0000
21.9700 0.9979 1.0000
21.9800 0.0000 1.0000
21.9900 0.0000 1.0000
22.0000 0.0000 1.0000
22.0100 2.9908 1.0000
22.0200 3.0142 1.0000
22.0300 3.9366 1.0000
22.0400 1.9840 1.0000
22.0500 0.9924 1.0000
22.0600 0.9530 1.0000
22.0700 0.0000 1.0000
22.0800 3.0230 1.0000
22.0900 3.9933 1.0000
22.1000 3.9506 1.0000
22.1100 0.0000 1.0000
22.1200 1.0015 1.0000
22.1300 1.0092 1.0000
22.1400 0.0000 1.0000
22.1500 4.0230 1.0000
22.1600 3.9759 1.0000
22.1700 2.0091 1.0000
22.1800 1.9740 1.0000
22.1900 0.0000 1.0000
22.2000 0.9977 1.0000
22.2100 0.0000 1.0000
22.2200 3.0237 1.0000
22.2300 2.9903 1.0000
22.2400 0.0000 1.0000
22.2500 2.0054 1.0000
22.2600 1.9754 1.0000
22.2700 3.0208 1.0000
22.2800 4.9688 1.0000
22.2900 2.0112 1.0000
22.3000 0.0000 1.0000
22.3100 0.0000 1.0000
22.3200 0.0000 1.0000
22.3300 1.0115 1.0000
22.3400 0.0000 1.0000
22.3500 1.9821 1.0000
22.3600 1.9880 1.0000
22.3700 1.9889 1.0000
22.3800 2.9994 1.0000
22.3900 1.0010 1.0000
22.4000 0.9894 1.0000
22.4100 0.0000 1.0000
22.4200 1.9811 1.0000
22.4300 2.9544 1.0000
22.4400 0.9969 1.0000
22.4500 1.9718 1.0000
22.4600 2.0001 1.0000
22.4700 2.0122 1.0000
22.4800 1.0041 1.0000
22.4900 0.0000 1.0000
22.5000 0.0000 1.0000
22.5100 0.0000 1.0000
22.5200 4.0170 1.0000
22.5300 1.0038 1.0000
22.5400 0.0000 1.0000
22.5500 0.9890 1.0000
22.5600 2.0062 1.0000
22.5700 2.0063 1.0000
22.5800 1.0071 1.0000
22.5900 2.9445 1.0000
22.6000 2.0165 1.0000
22.6100 0.0000 1.0000
22.6200 0.9865 1.0000
22.6300 0.9783 1.0000
22.6400 0.9843 1.0000
22.6500 1.0022 1.0000
22.6600 0.9996 1.0000
22.6700 3.9992 1.0000
22.6800 2.9770 1.0000
22.6900 0.9804 1.0000
22.7000 0.9991 1.0000
22.7100 0.0000 1.0000
22.7200 3.9861 1.0000
22.7300 1.9756 1.0000
22.7400 1.9730 1.0000
22.7500 3.0201 1.0000
22.7600 1.0199 1.0000
22.7700 2.0059 1.0000
22.7800 0.9887 1.0000
22.7900 0.9921 1.0000
22.8000 0.9870 1.0000
22.8100 1.9986 1.0000
22.8200 0.9794 1.0000
22.8300 0.0000 1.0000
22.8400 0.9855 1.0000
22.8500 1.9838 1.0000
22.8600 4.3435 1.0000
22.8700 0.9952 1.0000
22.8800 1.9814 1.0000
22.8900 0.0000 1.0000
22.9000 4.0247 1.0000
22.9100 0.9997 1.0000
22.9200 0.0000 1.0000
22.9300 0.9886 1.0000
22.9400 3.0152 1.0000
22.9500 0.0000 1.0000
22.9600 0.0000 1.0000
22.9700 0.9875 1.0000
22.9800 0.9789 1.0000
22.9900 2.0244 1.0000
23.0000 2.0055 1.0000
23.0100 1.9863 1.0000
23.0200 1.9833 1.0000
23.0300 0.9711 1.0000
23.0400 0.0000 1.0000
23.0500 0.0000 1.0000
23.0600 1.9891 1.0000
23.0700 2.0008 1.0000
23.0800 2.0085 1.0000
23.0900 3.0013 1.0000
23.1000 0.0000 1.0000
23.1100 2.0136 1.0000
23.1200 2.9501 1.0000
23.1300 0.0000 1.0000
23.1400 0.9898 1.0000
23.1500 1.9833 1.0000
23.1600 2.0178 1.0000
23.1700 0.0000 1.0000
23.1800 0.9981 1.0000
23.1900 1.9936 1.0000
23.2000 0.0000 1.0000
23.2100 2.9698 1.0000
23.2200 0.9893 1.0000
23.2300 1.0091 1.0000
23.2400 0.9995 1.0000
23.2500 2.9852 1.0000
23.2600 3.9512 1.0000
23.2700 0.9861 1.0000
23.2800 1.9955 1.0000
23.2900 0.0000 1.0000
23.3000 0.0000 1.0000
23.3100 0.0000 1.0000
23.3200 0.0000 1.0000
23.3300 0.9870 1.0000
23.3400 0.0000 1.0000
23.3500 0.9675 1.0000
23.3600 0.9998 1.0000
23.3700 1.9722 1.0000
23.3800 0.9756 1.0000
23.3900 0.0000 1.0000
23.4000 2.9966 1.0000
23.4100 0.0000 1.0000
23.4200 0.0000 1.0000
23.4300 0.9938 1.0000
23.4400 1.9862 1.0000
23.4500 8.0276 1.0000
23.4600 1.9548 1.0000
23.4700 0.9985 1.0000
23.4800 1.9925 1.0000
23.4900 1.9737 1.0000
23.5000 2.9513 1.0000
23.5100 1.9851 1.0000
23.5200 0.0000 1.0000
23.5300 1.0029 1.0000
23.5400 2.9905 1.0000
23.5500 1.9760 1.0000
23.5600 0.0000 1.0000
23.5700 0.9873 1.0000
23.5800 0.9703 1.0000
23.5900 1.9942 1.0000
23.6000 2.9990 1.0000
23.6100 4.9571 1.0000
23.6200 0.9610 1.0000
23.6300 1.9731 1.0000
23.6400 1.0194 1.0000
23.6500 1.9835 1.0000
23.6600 1.0169 1.0000
23.6700 0.9964 1.0000
23.6800 1.9914 1.0000
23.6900 1.9769 1.0000
23.7000 0.9609 1.0000
23.7100 3.9443 1.0000
23.7200 0.9997 1.0000
23.7300 0.9882 1.0000
23.7400 1.9576 1.0000
23.7500 1.0199 1.0000
23.7600 0.9675 1.0000
23.7700 3.0348 1.0000
23.7800 1.9706 1.0000
23.7900 2.0121 1.0000
23.8000 0.9988 1.0000
23.8100 1.0001 1.0000
23.8200 0.0000 1.0000
23.8300 0.0000 1.0000
23.8400 1.0029 1.0000
23.8500 1.0049 1.0000
23.8600 2.9884 1.0000
23.8700 1.0026 1.0000
23.8800 2.9556 1.0000
23.8900 0.0000 1.0000
23.9000 0.9866 1.0000
23.9100 3.0166 1.0000
23.9200 0.0000 1.0000
23.9300 0.0000 1.0000
23.9400 0.0000 1.0000
23.9500 0.9840 1.0000
23.9600 1.0122 1.0000
23.9700 0.0000 1.0000
23.9800 0.9819 1.0000
23.9900 2.9812 1.0000
24.0000 2.9689 1.0000
24.0100 0.0000 1.0000
24.0200 0.0000 1.0000
24.0300 0.9919 1.0000
24.0400 0.9939 1.0000
24.0500 2.0199 1.0000
24.0600 0.0000 1.0000
24.0700 0.9756 1.0000
24.0800 0.0000 1.0000
24.0900 1.0186 1.0000
24.1000 0.9675 1.0000
24.1100 3.9799 1.0000
24.1200 2.9637 1.0000
24.1300 0.0000 1.0000
24.1400 2.0133 1.0000
24.1500 0.0000 1.0000
24.1600 1.0309 1.0000
24.1700 1.0102 1.0000
24.1800 0.9912 1.0000
24.1900 0.9736 1.0000
24.2000 0.0000 1.0000
24.2100 1.0277 1.0000
24.2200 2.9826 1.0000
24.2300 0.0000 1.0000
24.2400 1.0327 1.0000
24.2500 2.0353 1.0000
24.2600 1.9489 1.0000
24.2700 1.9696 1.0000
24.2800 1.0049 1.0000
24.2900 2.0113 1.0000
24.3000 1.0019 1.0000
24.3100 0.0000 1.0000
24.3200 3.0099 1.0000
24.3300 2.0087 1.0000
24.3400 0.9857 1.0000
24.3500 0.0000 1.0000
24.3600 1.0016 1.0000
24.3700 0.9829 1.0000
24.3800 2.9911 1.0000
24.3900 0.0000 1.0000
24.4000 0.9989 1.0000
24.4100 2.9985 1.0000
24.4200 4.9927 1.0000
24.4300 1.9752 1.0000
24.4400 3.0454 1.0000
24.4500 2.0081 1.0000
24.4600 4.0016 1.0000
24.4700 1.9881 1.0000
24.4800 0.9847 1.0000
24.4900 0.9755 1.0000
24.5000 0.9929 1.0000
24.5100 1.9756 1.0000
24.5200 1.9696 1.0000
24.5300 0.9826 1.0000
24.5400 0.9964 1.0000
24.5500 4.9554 1.0000
24.5600 1.9939 1.0000
24.5700 0.0000 1.0000
24.5800 1.9784 1.0000
24.5900 1.9837 1.0000
24.6000 0.9841 1.0000
24.6100 1.0087 1.0000
24.6200 3.0158 1.0000
24.6300 1.0123 1.0000
24.6400 1.0053 1.0000
24.6500 1.9630 1.0000
24.6600 0.0000 1.0000
24.6700 1.9843 1.0000
24.6800 3.9769 1.0000
24.6900 2.0028 1.0000
24.7000 3.0135 1.0000
24.7100 2.9688 1.0000
24.7200 0.0000 1.0000
24.7300 0.9866 1.0000
24.7400 0.9995 1.0000
24.7500 0.9899 1.0000
24.7600 0.0000 1.0000
24.7700 0.9531 1.0000
24.7800 2.9902 1.0000
24.7900 1.0039 1.0000
24.8000 0.9912 1.0000
24.8100 2.0178 1.0000
24.8200 3.0288 1.0000
24.8300 0.9736 1.0000
24.8400 3.0043 1.0000
24.8500 2.0091 1.0000
24.8600 2.9768 1.0000
24.8700 1.9319 1.0000
24.8800 1.9764 1.0000
24.8900 1.0026 1.0000
24.9000 0.0000 1.0000
24.9100 2.9880 1.0000
24.9200 2.0098 1.0000
24.9300 0.9875 1.0000
24.9400 0.9979 1.0000
24.9500 1.9804 1.0000
24.9600 3.9815 1.0000
24.9700 3.9226 1.0000
24.9800 0.0000 1.0000
24.9900 0.0000 1.0000
25.0000 0.9959 1.0000
25.0100 4.9541 1.0000
25.0200 0.9939 1.0000
25.0300 0.0000 1.0000
25.0400 0.0000 1.0000
25.0500 0.0000 1.0000
25.0600 1.9943 1.0000
25.0700 2.0060 1.0000
25.0800 1.9857 1.0000
25.0900 2.9825 1.0000
25.1000 0.9958 1.0000
25.1100 0.0000 1.0000
25.1200 2.0414 1.0000
25.1300 2.9730 1.0000
25.1400 1.0083 1.0000
25.1500 0.0000 1.0000
25.1600 0.9944 1.0000
25.1700 3.9770 1.0000
25.1800 0.9883 1.0000
25.1900 2.9906 1.0000
25.2000 1.0025 1.0000
25.2100 1.9685 1.0000
25.2200 0.0000 1.0000
25.2300 1.0008 1.0000
25.2400 5.2335 1.0000
25.2500 1.9916 1.0000
25.2600 1.9742 1.0000
25.2700 2.0365 1.0000
25.2800 1.9674 1.0000
25.2900 0.0000 1.0000
25.3000 0.9948 1.0000
25.3100 2.9651 1.0000
25.3200 3.0134 1.0000
25.3300 0.0000 1.0000
25.3400 1.9820 1.0000
25.3500 1.9632 1.0000
25.3600 1.9757 1.0000
25.3700 0.0000 1.0000
25.3800 1.9871 1.0000
25.3900 3.9658 1.0000
25.4000 0.0000 1.0000
25.4100 0.0000 1.0000
25.4200 0.9783 1.0000
25.4300 4.9832 1.0000
25.4400 1.0002 1.0000
25.4500 1.9966 1.0000
25.4600 1.9794 1.0000
25.4700 0.9962 1.0000
25.4800 0.9993 1.0000
25.4900 2.9785 1.0000
25.5000 1.9840 1.0000
25.5100 1.9598 1.0000
25.5200 0.9530 1.0000
25.5300 0.0000 1.0000
25.5400 2.0084 1.0000
25.5500 4.0057 1.0000
25.5600 4.9790 1.0000
25.5700 1.0087 1.0000
25.5800 2.9664 1.0000
25.5900 0.0000 1.0000
25.6000 0.9774 1.0000
25.6100 3.9326 1.0000
25.6200 3.9971 1.0000
25.6300 0.9530 1.0000
25.6400 2.0002 1.0000
25.6500 0.9839 1.0000
25.6600 0.9898 1.0000
25.6700 0.9789 1.0000
25.6800 0.9993 1.0000
25.6900 1.0208 1.0000
25.7000 0.0000 1.0000
25.7100 1.0166 1.0000
25.7200 2.9757 1.0000
25.7300 0.0000 1.0000
25.7400 2.9425 1.0000
25.7500 0.0000 1.0000
25.7600 2.0284 1.0000
25.7700 2.0168 1.0000
25.7800 1.0101 1.0000
25.7900 0.0000 1.0000
25.8000 0.9948 1.0000
25.8100 2.0270 1.0000
25.8200 0.9794 1.0000
25.8300 0.0000 1.0000
25.8400 1.9982 1.0000
25.8500 1.0010 1.0000
25.8600 1.9505 1.0000
25.8700 1.9543 1.0000
25.8800 0.9585 1.0000
25.8900 3.0063 1.0000
25.9000 1.0027 1.0000
25.9100 3.0107 1.0000
25.9200 1.0110 1.0000
25.9300 0.0000 1.0000
25.9400 0.9968 1.0000
25.9500 0.9682 1.0000
25.9600 1.0054 1.0000
25.9700 1.9994 1.0000
25.9800 1.9747 1.0000
25.9900 1.9969 1.0000
26.0000 0.9978 1.0000
26.0100 0.0000 1.0000
26.0200 2.9918 1.0000
26.0300 1.0010 1.0000
26.0400 0.9933 1.0000
26.0500 2.0051 1.0000
26.0600 0.9960 1.0000
26.0700 0.9939 1.0000
26.0800 1.0194 1.0000
26.0900 0.9907 1.0000
26.1000 1.0029 1.0000
26.1100 0.9965 1.0000
26.1200 0.0000 1.0000
26.1300 0.9964 1.0000
26.1400 2.9770 1.0000
26.1500 3.0166 1.0000
26.1600 3.9544 1.0000
26.1700 0.9980 1.0000
26.1800 1.9638 1.0000
26.1900 0.9875 1.0000
26.2000 1.9875 1.0000
26.2100 0.9862 1.0000
26.2200 3.0172 1.0000
26.2300 2.0301 1.0000
26.2400 0.9893 1.0000
26.2500 0.9865 1.0000
26.2600 1.0010 1.0000
26.2700 0.9984 1.0000
26.2800 0.9959 1.0000
26.2900 3.0214 1.0000
26.3000 2.0092 1.0000
26.3100 2.9887 1.0000
26.3200 0.0000 1.0000
26.3300 0.0000 1.0000
26.3400 0.0000 1.0000
26.3500 0.0000 1.0000
26.3600 0.0000 1.0000
26.3700 3.0337 1.0000
26.3800 2.9699 1.0000
26.3900 3.0329 1.0000
26.4000 1.9823 1.0000
26.4100 1.9819 1.0000
26.4200 0.9939 1.0000
26.4300 0.9783 1.0000
26.4400 3.9696 1.0000
26.4500 0.0000 1.0000
26.4600 5.9630 1.0000
26.4700 4.0000 1.0000
26.4800 2.9566 1.0000
26.4900 0.0000 1.0000
26.5000 0.9893 1.0000
26.5100 1.9806 1.0000
26.5200 1.0038 1.0000
26.5300 3.9912 1.0000
26.5400 1.0136 1.0000
26.5500 0.9866 1.0000
26.5600 3.0061 1.0000
26.5700 0.0000 1.0000
26.5800 2.9850 1.0000
26.5900 1.9403 1.0000
26.6000 5.9707 1.0000
26.6100 1.0078 1.0000
26.6200 4.0044 1.0000
26.6300 0.0000 1.0000
26.6400 0.0000 1.0000
26.6500 0.0000 1.0000
26.6600 3.9771 1.0000
26.6700 1.0002 1.0000
26.6800 1.9770 1.0000
26.6900 0.0000 1.0000
26.7000 1.9961 1.0000
26.7100 0.0000 1.0000
26.7200 0.9880 1.0000
26.7300 3.9579 1.0000
26.7400 0.0000 1.0000
26.7500 0.0000 1.0000
26.7600 1.0303 1.0000
26.7700 0.9947 1.0000
26.7800 0.0000 1.0000
26.7900 1.0008 1.0000
26.8000 1.9860 1.0000
26.8100 2.0381 1.0000
26.8200 0.9997 1.0000
26.8300 2.0203 1.0000
26.8400 1.0250 1.0000
26.8500 0.9990 1.0000
26.8600 3.9754 1.0000
26.8700 0.9920 1.0000
26.8800 0.0000 1.0000
26.8900 0.9882 1.0000
26.9000 1.9861 1.0000
26.9100 0.9914 1.0000
26.9200 0.9716 1.0000
26.9300 2.0007 1.0000
26.9400 0.9840 1.0000
26.9500 4.0131 1.0000
26.9600 1.0032 1.0000
26.9700 4.0069 1.0000
26.9800 0.9919 1.0000
26.9900 0.9690 1.0000
27.0000 3.9790 1.0000
27.0100 0.9978 1.0000
27.0200 1.0089 1.0000
27.0300 0.0000 1.0000
27.0400 0.9930 1.0000
27.0500 0.0000 1.0000
27.0600 3.0023 1.0000
27.0700 2.0193 1.0000
27.0800 1.0050 1.0000
27.0900 1.9983 1.0000
27.1000 0.9787 1.0000
27.1100 0.0000 1.0000
27.1200 1.9948 1.0000
27.1300 0.0000 1.0000
27.1400 0.9767 1.0000
27.1500 1.0019 1.0000
27.1600 3.9894 1.0000
27.1700 0.9844 1.0000
27.1800 2.9563 1.0000
27.1900 0.9794 1.0000
27.2000 1.0092 1.0000
27.2100 0.0000 1.0000
27.2200 1.9679 1.0000
27.2300 3.0074 1.0000
27.2400 0.9981 1.0000
27.2500 1.9885 1.0000
27.2600 0.9840 1.0000
27.2700 1.9392 1.0000
27.2800 0.0000 1.0000
27.2900 0.9938 1.0000
27.3000 4.9986 1.0000
27.3100 1.0020 1.0000
27.3200 0.9736 1.0000
27.3300 1.9991 1.0000
27.3400 0.0000 1.0000
27.3500 1.9745 1.0000
27.3600 1.9846 1.0000
27.3700 0.0000 1.0000
27.3800 3.9143 1.0000
27.3900 3.0215 1.0000
27.4000 4.9910 1.0000
27.4100 1.9780 1.0000
27.4200 1.0277 1.0000
27.4300 0.9839 1.0000
27.4400 3.1263 1.0000
27.4500 3.0099 1.0000
27.4600 0.0000 1.0000
27.4700 0.0000 1.0000
27.4800 3.0046 1.0000
27.4900 3.9904 1.0000
27.5000 0.9843 1.0000
27.5100 1.9655 1.0000
27.5200 1.9488 1.0000
27.5300 0.9890 1.0000
27.5400 0.9983 1.0000
27.5500 0.9717 1.0000
27.5600 0.0000 1.0000
27.5700 1.0019 1.0000
27.5800 1.0134 1.0000
27.5900 3.9566 1.0000
27.6000 1.0294 1.0000
27.6100 1.9688 1.0000
27.6200 1.0135 1.0000
27.6300 2.9919 1.0000
27.6400 0.0000 1.0000
27.6500 1.9549 1.0000
27.6600 1.9739 1.0000
27.6700 0.9995 1.0000
27.6800 0.9971 1.0000
27.6900 0.9843 1.0000
27.7000 0.9881 1.0000
27.7100 0.9924 1.0000
27.7200 3.0173 1.0000
27.7300 1.0038 1.0000
27.7400 0.9982 1.0000
27.7500 2.9584 1.0000
27.7600 2.9785 1.0000
27.7700 0.0000 1.0000
27.7800 3.0002 1.0000
27.7900 0.9861 1.0000
27.8000 3.9829 1.0000
27.8100 0.9824 1.0000
27.8200 0.9953 1.0000
27.8300 2.9612 1.0000
27.8400 0.9862 1.0000
27.8500 0.9924 1.0000
27.8600 1.9764 1.0000
27.8700 3.8926 1.0000
27.8800 0.9710 1.0000
27.8900 1.9896 1.0000
27.9000 3.9801 1.0000
27.9100 4.9910 1.0000
27.9200 4.9978 1.0000
27.9300 3.0455 1.0000
27.9400 0.0000 1.0000
27.9500 0.9912 1.0000
27.9600 3.9843 1.0000
27.9700 0.9710 1.0000
27.9800 2.0014 1.0000
27.9900 1.9862 1.0000
28.0000 0.9949 1.0000
28.0100 0.9800 1.0000
28.0200 1.0071 1.0000
28.0300 2.9657 1.0000
28.0400 4.0044 1.0000
28.0500 1.9844 1.0000
28.0600 1.9537 1.0000
28.0700 0.9865 1.0000
28.0800 0.0000 1.0000
28.0900 0.9909 1.0000
28.1000 0.0000 1.0000
28.1100 0.0000 1.0000
28.1200 2.0115 1.0000
28.1300 0.9901 1.0000
28.1400 1.0085 1.0000
28.1500 2.9640 1.0000
28.1600 0.9822 1.0000
28.1700 1.9965 1.0000
28.1800 0.9870 1.0000
28.1900 3.9844 1.0000
28.2000 1.9796 1.0000
28.2100 1.9701 1.0000
28.2200 2.9702 1.0000
28.2300 0.9953 1.0000
28.2400 3.9356 1.0000
28.2500 3.9414 1.0000
28.2600 3.0196 1.0000
28.2700 2.0031 1.0000
28.2800 1.9812 1.0000
28.2900 2.0019 1.0000
28.3000 1.9840 1.0000
28.3100 0.9820 1.0000
28.3200 2.9622 1.0000
28.3300 3.0185 1.0000
28.3400 1.9962 1.0000
28.3500 2.9993 1.0000
28.3600 0.9870 1.0000
28.3700 2.9983 1.0000
28.3800 0.0000 1.0000
28.3900 0.9892 1.0000
28.4000 1.9802 1.0000
28.4100 0.9956 1.0000
28.4200 1.0019 1.0000
28.4300 0.9956 1.0000
28.4400 2.9888 1.0000
28.4500 0.0000 1.0000
28.4600 2.9711 1.0000
28.4700 1.0016 1.0000
28.4800 1.9979 1.0000
28.4900 1.9771 1.0000
28.5000 2.9238 1.0000
28.5100 1.0085 1.0000
28.5200 2.9858 1.0000
28.5300 3.9673 1.0000
28.5400 0.0000 1.0000
28.5500 3.0398 1.0000
28.5600 1.9775 1.0000
28.5700 1.9492 1.0000
28.5800 2.0178 1.0000
28.5900 2.9687 1.0000
28.6000 3.0128 1.0000
28.6100 1.9745 1.0000
28.6200 2.9439 1.0000
28.6300 2.9957 1.0000
28.6400 1.9762 1.0000
28.6500 1.9927 1.0000
28.6600 6.1688 1.0000
28.6700 0.0000 1.0000
28.6800 0.9962 1.0000
28.6900 2.9880 1.0000
28.7000 3.0192 1.0000
28.7100 1.0171 1.0000
28.7200 1.9810 1.0000
28.7300 1.9918 1.0000
28.7400 1.0049 1.0000
28.7500 1.9937 1.0000
28.7600 0.0000 1.0000
28.7700 4.9569 1.0000
28.7800 1.9735 1.0000
28.7900 1.9942 1.0000
28.8000 5.9362 1.0000
28.8100 2.9904 1.0000
28.8200 0.0000 1.0000
28.8300 3.0036 1.0000
28.8400 0.9686 1.0000
28.8500 2.9767 1.0000
28.8600 1.0110 1.0000
28.8700 3.0179 1.0000
28.8800 1.0108 1.0000
28.8900 3.9773 1.0000
28.9000 4.0175 1.0000
28.9100 1.9925 1.0000
28.9200 0.9979 1.0000
28.9300 3.9768 1.0000
28.9400 1.9931 1.0000
28.9500 4.9507 1.0000
28.9600 2.0052 1.0000
28.9700 3.9372 1.0000
28.9800 2.0221 1.0000
28.9900 2.9680 1.0000
29.0000 1.9982 1.0000
29.0100 1.9430 1.0000
29.0200 8.0550 1.0000
29.0300 0.9934 1.0000
29.0400 0.9978 1.0000
29.0500 3.9963 1.0000
29.0600 0.9905 1.0000
29.0700 2.9846 1.0000
29.0800 5.0157 1.0000
29.0900 4.0079 1.0000
29.1000 5.0078 1.0000
29.1100 0.0000 1.0000
29.1200 4.9109 1.0000
29.1300 1.9906 1.0000
29.1400 1.9755 1.0000
29.1500 4.0102 1.0000
29.1600 5.9659 1.0000
29.1700 0.9914 1.0000
29.1800 2.0087 1.0000
29.1900 2.9680 1.0000
29.2000 3.0177 1.0000
29.2100 1.9694 1.0000
29.2200 1.0171 1.0000
29.2300 0.9814 1.0000
29.2400 3.9904 1.0000
29.2500 4.0068 1.0000
29.2600 3.9505 1.0000
29.2700 3.9683 1.0000
29.2800 7.3162 1.0000
29.2900 0.0000 1.0000
29.3000 7.9883 1.0000
29.3100 0.9981 1.0000
29.3200 3.0216 1.0000
29.3300 2.9592 1.0000
29.3400 5.9842 1.0000
29.3500 0.9983 1.0000
29.3600 0.0000 1.0000
29.3700 0.9951 1.0000
29.3800 0.0000 1.0000
29.3900 1.9968 1.0000
29.4000 1.0282 1.0000
29.4100 4.0123 1.0000
29.4200 1.0026 1.0000
29.4300 1.9802 1.0000
29.4400 1.0226 1.0000
29.4500 2.9754 1.0000
29.4600 2.9710 1.0000
29.4700 1.9859 1.0000
29.4800 2.0291 1.0000
29.4900 2.9510 1.0000
29.5000 1.9806 1.0000
29.5100 1.9909 1.0000
29.5200 3.1468 1.0000
29.5300 0.9629 1.0000
29.5400 2.9468 1.0000
29.5500 3.9608 1.0000
29.5600 3.9899 1.0000
29.5700 0.0000 1.0000
29.5800 5.9152 1.0000
29.5900 0.9964 1.0000
29.6000 1.9604 1.0000
29.6100 3.0059 1.0000
29.6200 4.9031 1.0000
29.6300 2.9993 1.0000
29.6400 1.9904 1.0000
29.6500 2.9962 1.0000
29.6600 2.9920 1.0000
29.6700 0.9895 1.0000
29.6800 4.9816 1.0000
29.6900 3.9926 1.0000
29.7000 2.9732 1.0000
29.7100 6.0185 1.0000
29.7200 4.9789 1.0000
29.7300 0.9893 1.0000
29.7400 4.0134 1.0000
29.7500 5.9496 1.0000
29.7600 5.0187 1.0000
29.7700 4.0015 1.0000
29.7800 3.0021 1.0000
29.7900 2.9873 1.0000
29.8000 2.9687 1.0000
29.8100 4.0056 1.0000
29.8200 0.0000 1.0000
29.8300 1.9974 1.0000
29.8400 2.9641 1.0000
29.8500 4.9927 1.0000
29.8600 0.9966 1.0000
29.8700 3.9689 1.0000
29.8800 7.8928 1.0000
29.8900 2.0042 1.0000
29.9000 1.0211 1.0000
29.9100 2.9738 1.0000
29.9200 2.9824 1.0000
29.9300 0.0000 1.0000
29.9400 9.0442 1.0000
29.9500 3.9417 1.0000
29.9600 2.0146 1.0000
29.9700 1.9933 1.0000
29.9800 2.9775 1.0000
29.9900 3.9959 1.0000
30.0000 4.0024 1.0000
30.0100 3.9707 1.0000
30.0200 0.0000 1.0000
30.0300 9.0702 1.0000
30.0400 0.9725 1.0000
30.0500 0.9906 1.0000
30.0600 0.9962 1.0000
30.0700 2.9876 1.0000
30.0800 2.9723 1.0000
30.0900 2.0068 1.0000
30.1000 2.9697 1.0000
30.1100 4.9862 1.0000
30.1200 6.9622 1.0000
30.1300 1.9812 1.0000
30.1400 7.3099 1.0000
30.1500 4.9595 1.0000
30.1600 3.9708 1.0000
30.1700 6.9299 1.0000
30.1800 10.9869 1.0000
30.1900 4.0212 1.0000
30.2000 3.9782 1.0000
30.2100 6.9825 1.0000
30.2200 2.9815 1.0000
30.2300 3.0048 1.0000
30.2400 4.0119 1.0000
30.2500 4.9216 1.0000
30.2600 3.9703 1.0000
30.2700 3.9895 1.0000
30.2800 2.9933 1.0000
30.2900 4.0020 1.0000
30.3000 4.9739 1.0000
30.3100 2.9943 1.0000
30.3200 6.0346 1.0000
30.3300 2.0176 1.0000
30.3400 4.9418 1.0000
30.3500 3.9510 1.0000
30.3600 5.0088 1.0000
30.3700 3.9587 1.0000
30.3800 2.9626 1.0000
30.3900 7.0890 1.0000
30.4000 4.0158 1.0000
30.4100 4.9238 1.0000
30.4200 6.9694 1.0000
30.4300 4.9610 1.0000
30.4400 3.0273 1.0000
30.4500 2.9993 1.0000
30.4600 8.9953 1.0000
30.4700 11.9333 1.0000
30.4800 6.9994 1.0000
30.4900 5.9949 1.0000
30.5000 4.0176 1.0000
30.5100 7.9815 1.0000
30.5200 3.9839 1.0000
30.5300 3.0189 1.0000
30.5400 2.9705 1.0000
30.5500 7.8792 1.0000
30.5600 4.9881 1.0000
30.5700 7.9490 1.0000
30.5800 3.9967 1.0000
30.5900 5.0233 1.0000
30.6000 9.9948 1.0000
30.6100 3.9692 1.0000
30.6200 7.0350 1.0000
30.6300 5.0059 1.0000
30.6400 8.9675 1.0000
30.6500 8.9537 1.0000
30.6600 4.9747 1.0000
30.6700 4.0124 1.0000
30.6800 7.9408 1.0000
30.6900 6.9608 1.0000
30.7000 4.0062 1.0000
30.7100 8.9399 1.0000
30.7200 8.0037 1.0000
30.7300 7.9740 1.0000
30.7400 3.0180 1.0000
30.7500 9.9702 1.0000
30.7600 5.0116 1.0000
30.7700 4.9680 1.0000
30.7800 5.9721 1.0000
30.7900 9.9823 1.0000
30.8000 5.9811 1.0000
30.8100 4.9353 1.0000
30.8200 9.9890 1.0000
30.8300 11.0129 1.0000
30.8400 10.0601 1.0000
30.8500 6.9009 1.0000
30.8600 12.0234 1.0000
30.8700 6.9140 1.0000
30.8800 5.9664 1.0000
30.8900 6.9499 1.0000
30.9000 10.9768 1.0000
30.9100 9.8978 1.0000
30.9200 12.2969 1.0000
30.9300 18.0340 1.0000
30.9400 12.9385 1.0000
30.9500 8.9815 1.0000
30.9600 13.8669 1.0000
30.9700 17.0533 1.0000
30.9800 16.0613 1.0000
30.9900 10.0191 1.0000
31.0000 11.9384 1.0000
31.0100 11.9480 1.0000
31.0200 6.9194 1.0000
31.0300 14.9767 1.0000
31.0400 12.9496 1.0000
31.0500 7.9496 1.0000
31.0600 9.9428 1.0000
31.0700 9.0098 1.0000
31.0800 13.9858 1.0000
31.0900 10.9814 1.0000
31.1000 15.2915 1.0000
31.1100 13.9939 1.0000
31.1200 11.9944 1.0000
31.1300 18.0915 1.0000
31.1400 11.9196 1.0000
31.1500 14.9845 1.0000
31.1600 14.9592 1.0000
31.1700 12.1342 1.0000
31.1800 14.9336 1.0000
31.1900 19.9107 1.0000
31.2000 12.9191 1.0000
31.2100 17.9465 1.0000
31.2200 14.1228 1.0000
31.2300 17.9202 1.0000
31.2400 24.2484 1.0000
31.2500 25.0034 1.0000
31.2600 14.7579 1.0000
31.2700 20.1170 1.0000
31.2800 24.8866 1.0000
31.2900 28.0373 1.0000
31.3000 19.8781 1.0000
31.3100 28.9509 1.0000
31.3200 23.9451 1.0000
31.3300 28.9321 1.0000
31.3400 17.8572 1.0000
31.3500 23.9165 1.0000
31.3600 24.9407 1.0000
31.3700 19.9469 1.0000
31.3800 16.8973 1.0000
31.3900 35.0093 1.0000
31.4000 27.2289 1.0000
31.4100 26.8677 1.0000
31.4200 30.2175 1.0000
31.4300 42.8252 1.0000
31.4400 31.4284 1.0000
31.4500 35.9420 1.0000
31.4600 32.9235 1.0000
31.4700 35.3641 1.0000
31.4800 37.0946 1.0000
31.4900 45.8930 1.0000
31.5000 36.8146 1.0000
31.5100 40.7823 1.0000
31.5200 45.9050 1.0000
31.5300 47.9466 1.0000
31.5400 57.0622 1.0000
31.5500 54.9485 1.0000
31.5600 48.2302 1.0000
31.5700 49.9900 1.0000
31.5800 60.0025 1.0000
31.5900 70.8430 1.0000
31.6000 66.8417 1.0000
31.6100 68.7510 1.0000
31.6200 66.8092 1.0000
31.6300 92.0352 1.0000
31.6400 111.8877 1.0000
31.6500 123.7828 1.0000
31.6600 188.3014 1.0000
31.6700 331.3494 1.0000
31.6800 783.5997 1.0000
31.6900 1912.4929 1.0000
31.7000 3156.0244 1.0000
31.7100 3809.7383 1.0000
31.7200 5338.3789 1.0000
31.7300 6306.3350 1.0000
31.7400 5641.0986 1.0000
31.7500 5539.3647 1.0000
31.7600 6245.4375 1.0000
31.7700 11494.5332 1.0000
31.7800 22001.7832 1.0000
31.7900 24741.7285 1.0000
31.8000 29012.6680 1.0000
31.8100 27233.9336 1.0000
31.8200 25343.7891 1.0000
31.8300 19217.8887 1.0000
31.8400 15276.4863 1.0000
31.8500 9959.2324 1.0000
31.8600 4837.5933 1.0000
31.8700 3183.6802 1.0000
31.8800 3477.6755 1.0000
31.8900 3935.6436 1.0000
31.9000 3596.4851 1.0000
31.9100 2030.8640 1.0000
31.9200 582.1664 1.0000
31.9300 214.1856 1.0000
31.9400 142.2035 1.0000
31.9500 84.9595 1.0000
31.9600 67.2696 1.0000
31.9700 63.9288 1.0000
31.9800 54.0567 1.0000
31.9900 44.9414 1.0000
32.0000 42.0201 1.0000
32.0100 36.0395 1.0000
32.0200 38.8266 1.0000
32.0300 35.9607 1.0000
32.0400 34.9646 1.0000
32.0500 27.1957 1.0000
32.0600 25.9073 1.0000
32.0700 29.0488 1.0000
32.0800 16.8687 1.0000
32.0900 35.1505 1.0000
32.1000 14.8735 1.0000
32.1100 19.8943 1.0000
32.1200 22.9696 1.0000
32.1300 15.9198 1.0000
32.1400 20.8857 1.0000
32.1500 16.9418 1.0000
32.1600 20.9531 1.0000
32.1700 20.3143 1.0000
32.1800 17.9910 1.0000
32.1900 21.9364 1.0000
32.2000 20.8029 1.0000
32.2100 17.8040 1.0000
32.2200 8.9735 1.0000
32.2300 16.0237 1.0000
32.2400 17.9600 1.0000
32.2500 13.9474 1.0000
32.2600 12.0241 1.0000
32.2700 15.0113 1.0000
32.2800 11.1849 1.0000
32.2900 13.2518 1.0000
32.3000 18.1787 1.0000
32.3100 14.9495 1.0000
32.3200 10.1642 1.0000
32.3300 12.9724 1.0000
32.3400 11.9285 1.0000
32.3500 13.0037 1.0000
32.3600 9.9689 1.0000
32.3700 11.9310 1.0000
32.3800 11.0080 1.0000
32.3900 8.9448 1.0000
32.4000 11.0007 1.0000
32.4100 4.9831 1.0000
32.4200 9.9378 1.0000
32.4300 13.3091 1.0000
32.4400 13.9092 1.0000
32.4500 4.9807 1.0000
32.4600 10.9272 1.0000
32.4700 5.9492 1.0000
32.4800 5.9839 1.0000
32.4900 12.2627 1.0000
32.5000 8.9794 1.0000
32.5100 3.9984 1.0000
32.5200 7.9938 1.0000
32.5300 8.9509 1.0000
32.5400 12.9886 1.0000
32.5500 5.0332 1.0000
32.5600 6.0231 1.0000
32.5700 6.9108 1.0000
32.5800 7.9891 1.0000
32.5900 12.8993 1.0000
32.6000 9.9344 1.0000
32.6100 9.2081 1.0000
32.6200 8.9474 1.0000
32.6300 9.8847 1.0000
32.6400 10.0170 1.0000
32.6500 5.0116 1.0000
32.6600 12.0415 1.0000
32.6700 7.0246 1.0000
32.6800 1.0226 1.0000
32.6900 7.9571 1.0000
32.7000 5.9822 1.0000
32.7100 9.9693 1.0000
32.7200 8.0034 1.0000
32.7300 9.0744 1.0000
32.7400 7.9483 1.0000
32.7500 5.9876 1.0000
32.7600 7.9720 1.0000
32.7700 5.0743 1.0000
32.7800 8.0193 1.0000
32.7900 1.9770 1.0000
32.8000 7.9683 1.0000
32.8100 8.9153 1.0000
32.8200 9.9592 1.0000
32.8300 7.0241 1.0000
32.8400 6.9929 1.0000
32.8500 15.9168 1.0000
32.8600 5.9481 1.0000
32.8700 9.9880 1.0000
32.8800 2.9690 1.0000
32.8900 6.0014 1.0000
32.9000 5.0241 1.0000
32.9100 4.9439 1.0000
32.9200 5.9903 1.0000
32.9300 1.9953 1.0000
32.9400 4.9594 1.0000
32.9500 7.0061 1.0000
32.9600 4.0139 1.0000
32.9700 5.9602 1.0000
32.9800 4.9701 1.0000
32.9900 3.9834 1.0000
33.0000 5.0017 1.0000
33.0100 7.0024 1.0000
33.0200 7.9234 1.0000
33.0300 4.0006 1.0000
33.0400 11.0636 1.0000
33.0500 11.0829 1.0000
33.0600 8.9132 1.0000
33.0700 3.9766 1.0000
33.0800 7.9464 1.0000
33.0900 6.9670 1.0000
33.1000 5.1765 1.0000
33.1100 6.0511 1.0000
33.1200 7.9336 1.0000
33.1300 6.9290 1.0000
33.1400 9.9917 1.0000
33.1500 5.9447 1.0000
33.1600 3.9920 1.0000
33.1700 9.9263 1.0000
33.1800 4.1269 1.0000
33.1900 4.0187 1.0000
33.2000 5.9712 1.0000
33.2100 4.9886 1.0000
33.2200 4.9980 1.0000
33.2300 2.9668 1.0000
33.2400 1.9886 1.0000
33.2500 5.0056 1.0000
33.2600 7.0490 1.0000
33.2700 7.3214 1.0000
33.2800 2.9993 1.0000
33.2900 0.9992 1.0000
33.3000 6.0455 1.0000
33.3100 0.0000 1.0000
33.3200 4.9665 1.0000
33.3300 7.9112 1.0000
33.3400 5.9400 1.0000
33.3500 5.9723 1.0000
33.3600 2.0188 1.0000
33.3700 5.9537 1.0000
33.3800 7.9399 1.0000
33.3900 7.9779 1.0000
33.4000 4.9993 1.0000
33.4100 4.9543 1.0000
33.4200 4.0046 1.0000
33.4300 3.9788 1.0000
33.4400 3.9549 1.0000
33.4500 4.9769 1.0000
33.4600 4.9470 1.0000
33.4700 3.0049 1.0000
33.4800 2.9882 1.0000
33.4900 5.9332 1.0000
33.5000 3.0225 1.0000
33.5100 6.9328 1.0000
33.5200 2.9803 1.0000
33.5300 10.9851 1.0000
33.5400 3.9208 1.0000
33.5500 3.9828 1.0000
33.5600 2.0058 1.0000
33.5700 6.9594 1.0000
33.5800 4.9800 1.0000
33.5900 3.0006 1.0000
33.6000 4.0097 1.0000
33.6100 4.9874 1.0000
33.6200 1.9858 1.0000
33.6300 0.0000 1.0000
33.6400 2.9653 1.0000
33.6500 6.9773 1.0000
33.6600 3.9939 1.0000
33.6700 2.9889 1.0000
33.6800 3.0051 1.0000
33.6900 6.9218 1.0000
33.7000 2.0145 1.0000
33.7100 5.0297 1.0000
33.7200 4.0147 1.0000
33.7300 2.9659 1.0000
33.7400 3.0227 1.0000
33.7500 0.9871 1.0000
33.7600 4.1379 1.0000
33.7700 3.9943 1.0000
33.7800 3.0180 1.0000
33.7900 3.0150 1.0000
33.8000 5.2914 1.0000
33.8100 4.0370 1.0000
33.8200 2.9792 1.0000
33.8300 3.0358 1.0000
33.8400 0.0000 1.0000
33.8500 8.0055 1.0000
33.8600 2.9562 1.0000
33.8700 3.9779 1.0000
33.8800 0.9870 1.0000
33.8900 6.9830 1.0000
33.9000 1.9999 1.0000
33.9100 3.9761 1.0000
33.9200 3.9862 1.0000
33.9300 5.9663 1.0000
33.9400 3.9949 1.0000
33.9500 1.9873 1.0000
33.9600 4.0408 1.0000
33.9700 1.9527 1.0000
33.9800 0.9932 1.0000
33.9900 5.0295 1.0000
34.0000 3.0522 1.0000
34.0100 5.0056 1.0000
34.0200 0.0000 1.0000
34.0300 1.9899 1.0000
34.0400 5.9636 1.0000
34.0500 4.9567 1.0000
34.0600 3.0099 1.0000
34.0700 3.9922 1.0000
34.0800 3.0041 1.0000
34.0900 3.9335 1.0000
34.1000 3.0042 1.0000
34.1100 1.9452 1.0000
34.1200 3.9993 1.0000
34.1300 4.9536 1.0000
34.1400 4.0161 1.0000
34.1500 2.0204 1.0000
34.1600 3.9726 1.0000
34.1700 4.9700 1.0000
34.1800 2.0363 1.0000
34.1900 5.0276 1.0000
34.2000 2.9628 1.0000
34.2100 3.0100 1.0000
34.2200 1.9773 1.0000
34.2300 0.9904 1.0000
34.2400 2.0003 1.0000
34.2500 3.9607 1.0000
34.2600 4.9603 1.0000
34.2700 3.9729 1.0000
34.2800 3.0315 1.0000
34.2900 1.9729 1.0000
34.3000 9.0942 1.0000
34.3100 3.9848 1.0000
34.3200 4.0421 1.0000
34.3300 2.9623 1.0000
34.3400 1.9788 1.0000
34.3500 3.0112 1.0000
34.3600 7.3492 1.0000
34.3700 3.9623 1.0000
34.3800 2.9999 1.0000
34.3900 4.9543 1.0000
34.4000 1.0098 1.0000
34.4100 7.9537 1.0000
34.4200 3.9986 1.0000
34.4300 2.9724 1.0000
34.4400 1.9828 1.0000
34.4500 1.0087 1.0000
34.4600 1.9879 1.0000
34.4700 4.0004 1.0000
34.4800 6.9739 1.0000
34.4900 1.0083 1.0000
34.5000 4.0002 1.0000
34.5100 0.9794 1.0000
34.5200 5.9513 1.0000
34.5300 2.0003 1.0000
34.5400 2.0171 1.0000
34.5500 2.0107 1.0000
34.5600 0.0000 1.0000
34.5700 0.9893 1.0000
34.5800 1.9987 1.0000
34.5900 1.9860 1.0000
34.6000 1.9797 1.0000
34.6100 3.0091 1.0000
34.6200 4.0161 1.0000
34.6300 3.9851 1.0000
34.6400 0.9899 1.0000
34.6500 2.0120 1.0000
34.6600 1.9635 1.0000
34.6700 0.0000 1.0000
34.6800 0.0000 1.0000
34.6900 3.9648 1.0000
34.7000 3.9661 1.0000
34.7100 1.9909 1.0000
34.7200 2.9981 1.0000
34.7300 1.0040 1.0000
34.7400 0.9978 1.0000
34.7500 3.9841 1.0000
34.7600 2.9993 1.0000
34.7700 1.9655 1.0000
34.7800 3.0125 1.0000
34.7900 2.9698 1.0000
34.8000 3.9434 1.0000
34.8100 3.0069 1.0000
34.8200 0.0000 1.0000
34.8300 4.0091 1.0000
34.8400 0.9794 1.0000
34.8500 0.9919 1.0000
34.8600 2.9498 1.0000
34.8700 2.0080 1.0000
34.8800 3.9520 1.0000
34.8900 2.9695 1.0000
34.9000 1.0208 1.0000
34.9100 3.0020 1.0000
34.9200 5.9679 1.0000
34.9300 4.9978 1.0000
34.9400 1.9640 1.0000
34.9500 0.0000 1.0000
34.9600 0.9883 1.0000
34.9700 2.9460 1.0000
34.9800 8.9685 1.0000
34.9900 1.9609 1.0000
35.0000 0.9968 1.0000
35.0100 1.9932 1.0000
35.0200 0.0000 1.0000
35.0300 1.2934 1.0000
35.0400 1.9819 1.0000
35.0500 0.9889 1.0000
35.0600 1.0116 1.0000
35.0700 3.0025 1.0000
35.0800 1.9777 1.0000
35.0900 0.9711 1.0000
35.1000 2.0238 1.0000
35.1100 2.9332 1.0000
35.1200 0.0000 1.0000
35.1300 2.9765 1.0000
35.1400 2.9964 1.0000
35.1500 0.0000 1.0000
35.1600 3.0020 1.0000
35.1700 1.9741 1.0000
35.1800 2.9790 1.0000
35.1900 3.0001 1.0000
35.2000 0.9728 1.0000
35.2100 4.9784 1.0000
35.2200 2.9679 1.0000
35.2300 1.9913 1.0000
35.2400 2.0026 1.0000
35.2500 2.9682 1.0000
35.2600 1.9663 1.0000
35.2700 2.0349 1.0000
35.2800 0.9924 1.0000
35.2900 1.0284 1.0000
35.3000 2.0458 1.0000
35.3100 2.9758 1.0000
35.3200 2.0020 1.0000
35.3300 1.9756 1.0000
35.3400 3.9568 1.0000
35.3500 4.0057 1.0000
35.3600 1.9919 1.0000
35.3700 1.0110 1.0000
35.3800 0.0000 1.0000
35.3900 1.9849 1.0000
35.4000 1.9878 1.0000
35.4100 2.9851 1.0000
35.4200 0.0000 1.0000
35.4300 3.9628 1.0000
35.4400 1.9739 1.0000
35.4500 0.9899 1.0000
35.4600 0.9943 1.0000
35.4700 3.9843 1.0000
35.4800 0.0000 1.0000
35.4900 0.0000 1.0000
35.5000 3.9519 1.0000
35.5100 0.0000 1.0000
35.5200 1.9663 1.0000
35.5300 2.9652 1.0000
35.5400 1.9689 1.0000
35.5500 5.0026 1.0000
35.5600 0.9634 1.0000
35.5700 1.9758 1.0000
35.5800 6.9436 1.0000
35.5900 2.9262 1.0000
35.6000 1.9949 1.0000
35.6100 2.9438 1.0000
35.6200 2.0194 1.0000
35.6300 5.0130 1.0000
35.6400 4.9803 1.0000
35.6500 1.9850 1.0000
35.6600 1.9881 1.0000
35.6700 2.9782 1.0000
35.6800 3.0134 1.0000
35.6900 1.0038 1.0000
35.7000 2.9755 1.0000
35.7100 0.0000 1.0000
35.7200 3.0017 1.0000
35.7300 2.9682 1.0000
35.7400 3.9709 1.0000
35.7500 3.0027 1.0000
35.7600 1.0101 1.0000
35.7700 1.9885 1.0000
35.7800 2.0153 1.0000
35.7900 2.0049 1.0000
35.8000 1.9871 1.0000
35.8100 1.9881 1.0000
35.8200 2.0131 1.0000
35.8300 0.9711 1.0000
35.8400 6.0649 1.0000
35.8500 2.0108 1.0000
35.8600 1.9867 1.0000
35.8700 0.9943 1.0000
35.8800 6.9388 1.0000
35.8900 0.0000 1.0000
35.9000 1.0080 1.0000
35.9100 1.0053 1.0000
35.9200 2.0074 1.0000
35.9300 1.9997 1.0000
35.9400 0.0000 1.0000
35.9500 1.9485 1.0000
35.9600 0.9893 1.0000
35.9700 1.0037 1.0000
35.9800 2.0013 1.0000
35.9900 1.9766 1.0000
36.0000 6.9902 1.0000
36.0100 1.9912 1.0000
36.0200 1.9684 1.0000
36.0300 1.9962 1.0000
36.0400 2.0035 1.0000
36.0500 2.0050 1.0000
36.0600 0.9945 1.0000
36.0700 2.9717 1.0000
36.0800 1.9734 1.0000
36.0900 3.9393 1.0000
36.1000 0.9861 1.0000
36.1100 1.9946 1.0000
36.1200 0.9972 1.0000
36.1300 3.9986 1.0000
36.1400 2.0353 1.0000
36.1500 0.9935 1.0000
36.1600 0.9878 1.0000
36.1700 0.9782 1.0000
36.1800 0.0000 1.0000
36.1900 2.0020 1.0000
36.2000 0.0000 1.0000
36.2100 3.9869 1.0000
36.2200 4.9574 1.0000
36.2300 0.9845 1.0000
36.2400 3.0058 1.0000
36.2500 2.9627 1.0000
36.2600 0.0000 1.0000
36.2700 2.0260 1.0000
36.2800 1.9830 1.0000
36.2900 2.9969 1.0000
36.3000 4.9434 1.0000
36.3100 0.9531 1.0000
36.3200 3.9760 1.0000
36.3300 2.0078 1.0000
36.3400 1.0016 1.0000
36.3500 0.9988 1.0000
36.3600 2.0005 1.0000
36.3700 2.9557 1.0000
36.3800 3.0326 1.0000
36.3900 3.9552 1.0000
36.4000 1.0308 1.0000
36.4100 3.9494 1.0000
36.4200 2.0060 1.0000
36.4300 2.0279 1.0000
36.4400 1.9873 1.0000
36.4500 3.9938 1.0000
36.4600 3.9922 1.0000
36.4700 3.9755 1.0000
36.4800 0.0000 1.0000
36.4900 1.0014 1.0000
36.5000 1.0163 1.0000
36.5100 2.0091 1.0000
36.5200 2.0168 1.0000
36.5300 0.0000 1.0000
36.5400 3.9858 1.0000
36.5500 4.9146 1.0000
36.5600 0.9940 1.0000
36.5700 1.9748 1.0000
36.5800 2.9605 1.0000
36.5900 1.0019 1.0000
36.6000 0.0000 1.0000
36.6100 2.0090 1.0000
36.6200 1.0200 1.0000
36.6300 3.9816 1.0000
36.6400 5.9490 1.0000
36.6500 2.0006 1.0000
36.6600 3.9442 1.0000
36.6700 3.9813 1.0000
36.6800 2.0102 1.0000
36.6900 2.9821 1.0000
36.7000 0.9978 1.0000
36.7100 1.9964 1.0000
36.7200 2.9411 1.0000
36.7300 1.9919 1.0000
36.7400 1.9898 1.0000
36.7500 3.0057 1.0000
36.7600 4.9715 1.0000
36.7700 2.9960 1.0000
36.7800 0.9982 1.0000
36.7900 2.0155 1.0000
36.8000 0.0000 1.0000
36.8100 1.9854 1.0000
36.8200 1.0002 1.0000
36.8300 0.0000 1.0000
36.8400 2.0105 1.0000
36.8500 1.9638 1.0000
36.8600 1.9490 1.0000
36.8700 2.0066 1.0000
36.8800 1.0288 1.0000
36.8900 1.0038 1.0000
36.9000 0.9992 1.0000
36.9100 2.0110 1.0000
36.9200 0.9933 1.0000
36.9300 2.0099 1.0000
36.9400 5.0402 1.0000
36.9500 0.0000 1.0000
36.9600 1.0222 1.0000
36.9700 0.9585 1.0000
36.9800 0.0000 1.0000
36.9900 2.9934 1.0000
37.0000 4.9566 1.0000
37.0100 0.0000 1.0000
37.0200 2.9802 1.0000
37.0300 0.0000 1.0000
37.0400 3.9592 1.0000
37.0500 0.9701 1.0000
37.0600 1.9997 1.0000
37.0700 0.0000 1.0000
37.0800 3.9109 1.0000
37.0900 2.9782 1.0000
37.1000 2.0298 1.0000
37.1100 1.0002 1.0000
37.1200 0.0000 1.0000
37.1300 1.0284 1.0000
37.1400 2.0086 1.0000
37.1500 1.0128 1.0000
37.1600 0.0000 1.0000
37.1700 0.9958 1.0000
37.1800 1.0022 1.0000
37.1900 2.0088 1.0000
37.2000 2.9909 1.0000
37.2100 0.0000 1.0000
37.2200 0.9943 1.0000
37.2300 1.0200 1.0000
37.2400 0.9867 1.0000
37.2500 3.9666 1.0000
37.2600 4.9744 1.0000
37.2700 0.9989 1.0000
37.2800 2.9923 1.0000
37.2900 2.9767 1.0000
37.3000 1.9796 1.0000
37.3100 3.9562 1.0000
37.3200 3.9694 1.0000
37.3300 1.0014 1.0000
37.3400 2.0325 1.0000
37.3500 0.0000 1.0000
37.3600 0.0000 1.0000
37.3700 1.9938 1.0000
37.3800 1.9700 1.0000
37.3900 0.9958 1.0000
37.4000 4.9654 1.0000
37.4100 1.9813 1.0000
37.4200 0.0000 1.0000
37.4300 0.0000 1.0000
37.4400 1.9857 1.0000
37.4500 3.0001 1.0000
37.4600 2.0007 1.0000
37.4700 2.0055 1.0000
37.4800 1.0118 1.0000
37.4900 1.0053 1.0000
37.5000 3.0020 1.0000
37.5100 1.9656 1.0000
37.5200 0.0000 1.0000
37.5300 1.9952 1.0000
37.5400 0.0000 1.0000
37.5500 1.0149 1.0000
37.5600 1.0078 1.0000
37.5700 4.9410 1.0000
37.5800 0.0000 1.0000
37.5900 1.0082 1.0000
37.6000 2.0319 1.0000
37.6100 1.9967 1.0000
37.6200 1.9937 1.0000
37.6300 0.9867 1.0000
37.6400 2.9815 1.0000
37.6500 1.0039 1.0000
37.6600 0.0000 1.0000
37.6700 2.9798 1.0000
37.6800 1.0175 1.0000
37.6900 1.9588 1.0000
37.7000 4.0236 1.0000
37.7100 0.0000 1.0000
37.7200 1.0192 1.0000
37.7300 0.9901 1.0000
37.7400 1.0207 1.0000
37.7500 1.9899 1.0000
37.7600 6.0304 1.0000
37.7700 0.0000 1.0000
37.7800 1.0134 1.0000
37.7900 2.9913 1.0000
37.8000 0.9792 1.0000
37.8100 2.0069 1.0000
37.8200 0.9919 1.0000
37.8300 1.9710 1.0000
37.8400 0.0000 1.0000
37.8500 2.9820 1.0000
37.8600 4.0121 1.0000
37.8700 3.0072 1.0000
37.8800 1.9927 1.0000
37.8900 0.9983 1.0000
37.9000 2.0102 1.0000
37.9100 0.0000 1.0000
37.9200 1.9973 1.0000
37.9300 2.0040 1.0000
37.9400 2.0033 1.0000
37.9500 1.0306 1.0000
37.9600 2.0095 1.0000
37.9700 0.0000 1.0000
37.9800 2.9764 1.0000
37.9900 0.0000 1.0000
38.0000 3.0022 1.0000
38.0100 3.0307 1.0000
38.0200 4.0183 1.0000
38.0300 1.9844 1.0000
38.0400 2.9574 1.0000
38.0500 4.9732 1.0000
38.0600 7.0488 1.0000
38.0700 2.9595 1.0000
38.0800 1.9957 1.0000
38.0900 5.0038 1.0000
38.1000 0.9928 1.0000
38.1100 6.9031 1.0000
38.1200 3.9725 1.0000
38.1300 1.9795 1.0000
38.1400 2.9729 1.0000
38.1500 6.8887 1.0000
38.1600 5.9484 1.0000
38.1700 3.9635 1.0000
38.1800 9.9479 1.0000
38.1900 4.9623 1.0000
38.2000 4.9887 1.0000
38.2100 5.9397 1.0000
38.2200 1.9842 1.0000
38.2300 1.9890 1.0000
38.2400 4.9917 1.0000
38.2500 6.0172 1.0000
38.2600 5.0222 1.0000
38.2700 3.0371 1.0000
38.2800 6.2819 1.0000
38.2900 7.0172 1.0000
38.3000 0.9926 1.0000
38.3100 2.9565 1.0000
38.3200 1.1415 1.0000
38.3300 2.9920 1.0000
38.3400 1.0066 1.0000
38.3500 4.0191 1.0000
38.3600 1.9709 1.0000
38.3700 1.9897 1.0000
38.3800 3.9947 1.0000
38.3900 1.9690 1.0000
38.4000 0.0000 1.0000
38.4100 3.9662 1.0000
38.4200 2.1392 1.0000
38.4300 1.9849 1.0000
38.4400 2.0190 1.0000
38.4500 2.9685 1.0000
38.4600 0.9946 1.0000
38.4700 0.9937 1.0000
38.4800 0.9997 1.0000
38.4900 0.0000 1.0000
38.5000 1.9654 1.0000
38.5100 1.9602 1.0000
38.5200 3.0078 1.0000
38.5300 0.9950 1.0000
38.5400 0.0000 1.0000
38.5500 2.0055 1.0000
38.5600 1.9943 1.0000
38.5700 1.9625 1.0000
38.5800 3.9899 1.0000
38.5900 3.0180 1.0000
38.6000 4.0012 1.0000
38.6100 2.9710 1.0000
38.6200 3.0110 1.0000
38.6300 4.0214 1.0000
38.6400 3.9811 1.0000
38.6500 0.0000 1.0000
38.6600 0.9851 1.0000
38.6700 1.0022 1.0000
38.6800 1.9586 1.0000
38.6900 0.0000 1.0000
38.7000 0.0000 1.0000
38.7100 2.0191 1.0000
38.7200 3.9577 1.0000
38.7300 0.9901 1.0000
38.7400 0.0000 1.0000
38.7500 0.0000 1.0000
38.7600 2.9887 1.0000
38.7700 2.0251 1.0000
38.7800 1.9351 1.0000
38.7900 0.0000 1.0000
38.8000 1.9765 1.0000
38.8100 1.9532 1.0000
38.8200 1.9622 1.0000
38.8300 0.9682 1.0000
38.8400 2.9679 1.0000
38.8500 4.9440 1.0000
38.8600 2.9854 1.0000
38.8700 0.0000 1.0000
38.8800 2.9640 1.0000
38.8900 2.9269 1.0000
38.9000 3.0111 1.0000
38.9100 0.9854 1.0000
38.9200 0.0000 1.0000
38.9300 4.0081 1.0000
38.9400 0.0000 1.0000
38.9500 2.9981 1.0000
38.9600 1.9947 1.0000
38.9700 1.0038 1.0000
38.9800 1.9957 1.0000
38.9900 0.9938 1.0000
39.0000 0.9998 1.0000
39.0100 1.9515 1.0000
39.0200 0.9919 1.0000
39.0300 1.0309 1.0000
39.0400 2.9939 1.0000
39.0500 2.9930 1.0000
39.0600 1.0178 1.0000
39.0700 3.0126 1.0000
39.0800 3.9751 1.0000
39.0900 1.0282 1.0000
39.1000 3.9566 1.0000
39.1100 3.9490 1.0000
39.1200 1.9872 1.0000
39.1300 2.0000 1.0000
39.1400 0.9918 1.0000
39.1500 0.9889 1.0000
39.1600 0.0000 1.0000
39.1700 3.9961 1.0000
39.1800 0.9953 1.0000
39.1900 2.9769 1.0000
39.2000 0.0000 1.0000
39.2100 0.9966 1.0000
39.2200 2.0023 1.0000
39.2300 4.9163 1.0000
39.2400 0.9629 1.0000
39.2500 2.9953 1.0000
39.2600 1.9517 1.0000
39.2700 0.9938 1.0000
39.2800 0.0000 1.0000
39.2900 0.0000 1.0000
39.3000 2.9427 1.0000
39.3100 5.0074 1.0000
39.3200 2.0067 1.0000
39.3300 2.9920 1.0000
39.3400 0.9859 1.0000
39.3500 1.9925 1.0000
39.3600 2.9980 1.0000
39.3700 0.9989 1.0000
39.3800 2.9445 1.0000
39.3900 1.0009 1.0000
39.4000 3.0027 1.0000
39.4100 1.0288 1.0000
39.4200 2.9530 1.0000
39.4300 3.0211 1.0000
39.4400 1.9981 1.0000
39.4500 0.0000 1.0000
39.4600 0.9994 1.0000
39.4700 0.0000 1.0000
39.4800 1.9715 1.0000
39.4900 1.9568 1.0000
39.5000 1.0029 1.0000
39.5100 0.0000 1.0000
39.5200 2.9781 1.0000
39.5300 1.9843 1.0000
39.5400 1.9871 1.0000
39.5500 0.0000 1.0000
39.5600 0.9924 1.0000
39.5700 1.0044 1.0000
39.5800 1.9872 1.0000
39.5900 2.9713 1.0000
39.6000 3.0114 1.0000
39.6100 3.9908 1.0000
39.6200 3.9567 1.0000
39.6300 1.0028 1.0000
39.6400 0.9746 1.0000
39.6500 0.0000 1.0000
39.6600 1.0068 1.0000
39.6700 1.9771 1.0000
39.6800 3.0124 1.0000
39.6900 0.9893 1.0000
39.7000 1.9815 1.0000
39.7100 0.0000 1.0000
39.7200 6.0326 1.0000
39.7300 0.0000 1.0000
39.7400 0.9893 1.0000
39.7500 1.0009 1.0000
39.7600 2.9871 1.0000
39.7700 2.9587 1.0000
39.7800 1.9935 1.0000
39.7900 3.9591 1.0000
39.8000 2.9958 1.0000
39.8100 1.9555 1.0000
39.8200 0.9711 1.0000
39.8300 7.0094 1.0000
39.8400 0.9839 1.0000
39.8500 1.0059 1.0000
39.8600 1.9961 1.0000
39.8700 0.9776 1.0000
39.8800 0.9973 1.0000
39.8900 0.0000 1.0000
39.9000 0.0000 1.0000
39.9100 2.9903 1.0000
39.9200 0.9962 1.0000
39.9300 0.9774 1.0000
39.9400 0.9985 1.0000
39.9500 2.0369 1.0000
39.9600 2.0427 1.0000
39.9700 0.0000 1.0000
39.9800 3.0132 1.0000
39.9900 4.9363 1.0000
40.0000 2.9475 1.0000
40.0100 0.9845 1.0000
40.0200 1.9665 1.0000
40.0300 2.9615 1.0000
40.0400 0.0000 1.0000
40.0500 3.9735 1.0000
40.0600 0.0000 1.0000
40.0700 0.9941 1.0000
40.0800 2.9807 1.0000
40.0900 2.0105 1.0000
40.1000 0.0000 1.0000
40.1100 0.9889 1.0000
40.1200 2.9714 1.0000
40.1300 2.0046 1.0000
40.1400 2.0104 1.0000
40.1500 0.9791 1.0000
40.1600 2.0196 1.0000
40.1700 1.0149 1.0000
40.1800 0.9869 1.0000
40.1900 0.0000 1.0000
40.2000 0.9855 1.0000
40.2100 0.0000 1.0000
40.2200 2.0025 1.0000
40.2300 5.9951 1.0000
40.2400 1.9956 1.0000
40.2500 1.9928 1.0000
40.2600 1.9740 1.0000
40.2700 2.0390 1.0000
40.2800 0.9916 1.0000
40.2900 1.0014 1.0000
40.3000 0.9921 1.0000
40.3100 0.9918 1.0000
40.3200 1.9930 1.0000
40.3300 1.9715 1.0000
40.3400 0.9964 1.0000
40.3500 1.0019 1.0000
40.3600 0.0000 1.0000
40.3700 1.9851 1.0000
40.3800 4.0029 1.0000
40.3900 1.9892 1.0000
40.4000 1.9771 1.0000
40.4100 0.9783 1.0000
40.4200 0.9918 1.0000
40.4300 1.9928 1.0000
40.4400 1.9868 1.0000
40.4500 5.9317 1.0000
40.4600 2.0009 1.0000
40.4700 3.9786 1.0000
40.4800 5.0048 1.0000
40.4900 3.0151 1.0000
40.5000 3.9684 1.0000
40.5100 2.0288 1.0000
40.5200 4.9565 1.0000
40.5300 1.9722 1.0000
40.5400 2.9890 1.0000
40.5500 0.9829 1.0000
40.5600 3.0121 1.0000
40.5700 1.9609 1.0000
40.5800 0.9990 1.0000
40.5900 4.0165 1.0000
40.6000 3.9491 1.0000
40.6100 0.9934 1.0000
40.6200 2.9838 1.0000
40.6300 1.9821 1.0000
40.6400 0.9938 1.0000
40.6500 3.9860 1.0000
40.6600 0.9971 1.0000
40.6700 1.9836 1.0000
40.6800 1.0136 1.0000
40.6900 2.9625 1.0000
40.7000 1.0093 1.0000
40.7100 0.9928 1.0000
40.7200 2.9326 1.0000
40.7300 1.9933 1.0000
40.7400 0.9658 1.0000
40.7500 0.0000 1.0000
40.7600 3.0539 1.0000
40.7700 0.9839 1.0000
40.7800 0.0000 1.0000
40.7900 1.9838 1.0000
40.8000 0.0000 1.0000
40.8100 0.9883 1.0000
40.8200 6.9452 1.0000
40.8300 0.0000 1.0000
40.8400 0.9965 1.0000
40.8500 1.9639 1.0000
40.8600 2.9248 1.0000
40.8700 3.9890 1.0000
40.8800 3.9874 1.0000
40.8900 3.0121 1.0000
40.9000 2.0199 1.0000
40.9100 3.0130 1.0000
40.9200 2.9785 1.0000
40.9300 0.9930 1.0000
40.9400 2.9634 1.0000
40.9500 4.0512 1.0000
40.9600 0.9853 1.0000
40.9700 0.9919 1.0000
40.9800 3.0000 1.0000
40.9900 3.0115 1.0000
41.0000 0.0000 1.0000
41.0100 2.0121 1.0000
41.0200 0.0000 1.0000
41.0300 1.9744 1.0000
41.0400 2.9814 1.0000
41.0500 2.0094 1.0000
41.0600 2.9683 1.0000
41.0700 2.9763 1.0000
41.0800 0.9893 1.0000
41.0900 0.0000 1.0000
41.1000 1.9558 1.0000
41.1100 0.0000 1.0000
41.1200 0.0000 1.0000
41.1300 1.9984 1.0000
41.1400 0.0000 1.0000
41.1500 3.0133 1.0000
41.1600 0.9887 1.0000
41.1700 0.0000 1.0000
41.1800 0.0000 1.0000
41.1900 0.0000 1.0000
41.2000 0.0000 1.0000
41.2100 0.0000 1.0000
41.2200 1.0378 1.0000
41.2300 1.9858 1.0000
41.2400 3.0190 1.0000
41.2500 2.9758 1.0000
41.2600 2.9528 1.0000
41.2700 0.0000 1.0000
41.2800 0.9853 1.0000
41.2900 2.9611 1.0000
41.3000 2.9787 1.0000
41.3100 0.0000 1.0000
41.3200 0.0000 1.0000
41.3300 0.0000 1.0000
41.3400 2.9785 1.0000
41.3500 0.0000 1.0000
41.3600 1.9747 1.0000
41.3700 1.9958 1.0000
41.3800 0.0000 1.0000
41.3900 0.0000 1.0000
41.4000 0.9654 1.0000
41.4100 3.9791 1.0000
41.4200 0.0000 1.0000
41.4300 0.0000 1.0000
41.4400 1.9585 1.0000
41.4500 0.9943 1.0000
41.4600 0.9755 1.0000
41.4700 3.0164 1.0000
41.4800 0.0000 1.0000
41.4900 3.9728 1.0000
41.5000 2.0096 1.0000
41.5100 1.0033 1.0000
41.5200 0.9953 1.0000
41.5300 0.0000 1.0000
41.5400 2.9766 1.0000
41.5500 0.9814 1.0000
41.5600 2.0463 1.0000
41.5700 1.9687 1.0000
41.5800 0.0000 1.0000
41.5900 2.9973 1.0000
41.6000 1.0020 1.0000
41.6100 2.0217 1.0000
41.6200 6.0085 1.0000
41.6300 0.0000 1.0000
41.6400 1.9747 1.0000
41.6500 3.0082 1.0000
41.6600 2.0043 1.0000
41.6700 1.9763 1.0000
41.6800 1.9920 1.0000
41.6900 0.0000 1.0000
41.7000 3.9223 1.0000
41.7100 0.9851 1.0000
41.7200 0.0000 1.0000
41.7300 2.9531 1.0000
41.7400 1.9887 1.0000
41.7500 4.9995 1.0000
41.7600 4.0180 1.0000
41.7700 0.9940 1.0000
41.7800 2.0149 1.0000
41.7900 1.9998 1.0000
41.8000 1.0411 1.0000
41.8100 1.0294 1.0000
41.8200 0.9711 1.0000
41.8300 0.9942 1.0000
41.8400 2.9610 1.0000
41.8500 2.9764 1.0000
41.8600 0.0000 1.0000
41.8700 1.9920 1.0000
41.8800 1.9410 1.0000
41.8900 0.0000 1.0000
41.9000 1.9864 1.0000
41.9100 1.9967 1.0000
41.9200 0.0000 1.0000
41.9300 0.9924 1.0000
41.9400 4.9619 1.0000
41.9500 1.0033 1.0000
41.9600 1.9838 1.0000
41.9700 4.9431 1.0000
41.9800 0.9880 1.0000
41.9900 0.9827 1.0000
42.0000 1.9796 1.0000
42.0100 3.9841 1.0000
42.0200 4.0371 1.0000
42.0300 0.9853 1.0000
42.0400 3.0065 1.0000
42.0500 2.9878 1.0000
42.0600 2.0029 1.0000
42.0700 1.0208 1.0000
42.0800 3.9629 1.0000
42.0900 2.0122 1.0000
42.1000 0.9746 1.0000
42.1100 1.0044 1.0000
42.1200 1.0137 1.0000
42.1300 0.0000 1.0000
42.1400 4.9415 1.0000
42.1500 1.9675 1.0000
42.1600 3.9833 1.0000
42.1700 0.9878 1.0000
42.1800 1.9854 1.0000
42.1900 0.9853 1.0000
42.2000 1.9916 1.0000
42.2100 0.9629 1.0000
42.2200 1.0030 1.0000
42.2300 0.0000 1.0000
42.2400 3.0631 1.0000
42.2500 0.9863 1.0000
42.2600 1.9877 1.0000
42.2700 0.9994 1.0000
42.2800 1.0109 1.0000
42.2900 4.9720 1.0000
42.3000 4.9317 1.0000
42.3100 0.0000 1.0000
42.3200 1.9893 1.0000
42.3300 2.0072 1.0000
42.3400 2.0106 1.0000
42.3500 1.9999 1.0000
42.3600 0.0000 1.0000
42.3700 2.9920 1.0000
42.3800 1.9552 1.0000
42.3900 3.0036 1.0000
42.4000 2.0264 1.0000
42.4100 4.0038 1.0000
42.4200 0.9834 1.0000
42.4300 0.9990 1.0000
42.4400 4.9974 1.0000
42.4500 0.0000 1.0000
42.4600 0.0000 1.0000
42.4700 1.9859 1.0000
42.4800 3.0458 1.0000
42.4900 3.9273 1.0000
42.5000 1.9915 1.0000
42.5100 1.9965 1.0000
42.5200 0.9959 1.0000
42.5300 1.0337 1.0000
42.5400 2.9948 1.0000
42.5500 2.0105 1.0000
42.5600 1.9955 1.0000
42.5700 0.9955 1.0000
42.5800 1.9614 1.0000
42.5900 1.9661 1.0000
42.6000 1.0001 1.0000
42.6100 2.0151 1.0000
42.6200 1.9903 1.0000
42.6300 0.9989 1.0000
42.6400 1.9959 1.0000
42.6500 0.9939 1.0000
42.6600 0.0000 1.0000
42.6700 2.9686 1.0000
42.6800 0.9746 1.0000
42.6900 0.9921 1.0000
42.7000 2.9556 1.0000
42.7100 0.9867 1.0000
42.7200 2.0068 1.0000
42.7300 0.9955 1.0000
42.7400 1.9971 1.0000
42.7500 0.9926 1.0000
42.7600 1.9500 1.0000
42.7700 2.0037 1.0000
42.7800 2.9425 1.0000
42.7900 0.9844 1.0000
42.8000 2.0099 1.0000
42.8100 1.9757 1.0000
42.8200 2.0134 1.0000
42.8300 1.9795 1.0000
42.8400 3.0002 1.0000
42.8500 2.9984 1.0000
42.8600 0.9982 1.0000
42.8700 1.9934 1.0000
42.8800 0.9755 1.0000
42.8900 1.0149 1.0000
42.9000 0.9898 1.0000
42.9100 2.0158 1.0000
42.9200 2.9872 1.0000
42.9300 0.9839 1.0000
42.9400 1.0044 1.0000
42.9500 2.9743 1.0000
42.9600 2.9678 1.0000
42.9700 1.0020 1.0000
42.9800 6.9271 1.0000
42.9900 1.1515 1.0000
43.0000 1.0101 1.0000
43.0100 0.0000 1.0000
43.0200 0.9658 1.0000
43.0300 4.9857 1.0000
43.0400 0.0000 1.0000
43.0500 1.0060 1.0000
43.0600 0.0000 1.0000
43.0700 0.9843 1.0000
43.0800 2.0000 1.0000
43.0900 0.0000 1.0000
43.1000 1.0134 1.0000
43.1100 1.0149 1.0000
43.1200 0.0000 1.0000
43.1300 1.0284 1.0000
43.1400 2.9773 1.0000
43.1500 1.9865 1.0000
43.1600 1.9555 1.0000
43.1700 0.9919 1.0000
43.1800 0.9945 1.0000
43.1900 0.9794 1.0000
43.2000 0.9875 1.0000
43.2100 0.9930 1.0000
43.2200 0.0000 1.0000
43.2300 1.0013 1.0000
43.2400 1.0060 1.0000
43.2500 0.9736 1.0000
43.2600 2.9504 1.0000
43.2700 0.9736 1.0000
43.2800 0.9728 1.0000
43.2900 1.9989 1.0000
43.3000 4.0019 1.0000
43.3100 0.0000 1.0000
43.3200 0.9918 1.0000
43.3300 0.0000 1.0000
43.3400 1.9879 1.0000
43.3500 2.0191 1.0000
43.3600 1.9793 1.0000
43.3700 2.0189 1.0000
43.3800 0.0000 1.0000
43.3900 1.9905 1.0000
43.4000 0.9942 1.0000
43.4100 1.0044 1.0000
43.4200 1.9820 1.0000
43.4300 1.9894 1.0000
43.4400 1.0024 1.0000
43.4500 1.0017 1.0000
43.4600 2.9808 1.0000
43.4700 1.9562 1.0000
43.4800 0.0000 1.0000
43.4900 0.9948 1.0000
43.5000 0.9939 1.0000
43.5100 1.9849 1.0000
43.5200 0.9993 1.0000
43.5300 2.0109 1.0000
43.5400 0.9774 1.0000
43.5500 4.9827 1.0000
43.5600 1.9866 1.0000
43.5700 4.9744 1.0000
43.5800 0.0000 1.0000
43.5900 3.9811 1.0000
43.6000 1.9605 1.0000
43.6100 0.9803 1.0000
43.6200 5.9883 1.0000
43.6300 1.9776 1.0000
43.6400 2.9945 1.0000
43.6500 1.9911 1.0000
43.6600 0.9933 1.0000
43.6700 1.9864 1.0000
43.6800 0.9901 1.0000
43.6900 2.0090 1.0000
43.7000 1.9694 1.0000
43.7100 0.0000 1.0000
43.7200 0.9952 1.0000
43.7300 1.9767 1.0000
43.7400 0.9895 1.0000
43.7500 1.9764 1.0000
43.7600 1.0053 1.0000
43.7700 1.9826 1.0000
43.7800 1.9848 1.0000
43.7900 0.0000 1.0000
43.8000 4.9405 1.0000
43.8100 0.0000 1.0000
43.8200 2.0140 1.0000
43.8300 3.0253 1.0000
43.8400 0.9918 1.0000
43.8500 0.0000 1.0000
43.8600 1.9438 1.0000
43.8700 2.9641 1.0000
43.8800 1.9809 1.0000
43.8900 2.9694 1.0000
43.9000 0.0000 1.0000
43.9100 1.9903 1.0000
43.9200 0.9958 1.0000
43.9300 2.9432 1.0000
43.9400 1.9889 1.0000
43.9500 3.9996 1.0000
43.9600 0.0000 1.0000
43.9700 2.0194 1.0000
43.9800 2.9665 1.0000
43.9900 2.0016 1.0000
44.0000 1.9973 1.0000
44.0100 2.9759 1.0000
44.0200 1.9910 1.0000
44.0300 1.0038 1.0000
44.0400 2.9799 1.0000
44.0500 2.9613 1.0000
44.0600 4.9775 1.0000
44.0700 4.9678 1.0000
44.0800 1.0058 1.0000
44.0900 0.9893 1.0000
44.1000 2.0326 1.0000
44.1100 1.9913 1.0000
44.1200 6.9749 1.0000
44.1300 2.9961 1.0000
44.1400 5.0063 1.0000
44.1500 7.9967 1.0000
44.1600 2.0034 1.0000
44.1700 2.0039 1.0000
44.1800 5.9774 1.0000
44.1900 6.0345 1.0000
44.2000 2.9463 1.0000
44.2100 5.9476 1.0000
44.2200 5.9664 1.0000
44.2300 2.9923 1.0000
44.2400 3.0015 1.0000
44.2500 5.9897 1.0000
44.2600 7.9239 1.0000
44.2700 4.9598 1.0000
44.2800 8.9899 1.0000
44.2900 6.0125 1.0000
44.3000 6.9797 1.0000
44.3100 5.8928 1.0000
44.3200 6.9875 1.0000
44.3300 6.9684 1.0000
44.3400 12.9441 1.0000
44.3500 4.9830 1.0000
44.3600 8.9807 1.0000
44.3700 6.9312 1.0000
44.3800 6.9945 1.0000
44.3900 2.9513 1.0000
44.4000 7.0138 1.0000
44.4100 9.0812 1.0000
44.4200 5.9479 1.0000
44.4300 7.9225 1.0000
44.4400 4.9925 1.0000
44.4500 4.0345 1.0000
44.4600 6.0574 1.0000
44.4700 2.9709 1.0000
44.4800 6.0719 1.0000
44.4900 2.9511 1.0000
44.5000 3.0051 1.0000
44.5100 3.0023 1.0000
44.5200 3.0160 1.0000
44.5300 2.0150 1.0000
44.5400 3.0047 1.0000
44.5500 4.9841 1.0000
44.5600 5.9504 1.0000
44.5700 2.0386 1.0000
44.5800 1.9638 1.0000
44.5900 3.0178 1.0000
44.6000 1.9781 1.0000
44.6100 3.9647 1.0000
44.6200 4.9489 1.0000
44.6300 3.9880 1.0000
44.6400 1.0011 1.0000
44.6500 5.9863 1.0000
44.6600 0.9875 1.0000
44.6700 0.0000 1.0000
44.6800 3.9582 1.0000
44.6900 4.9797 1.0000
44.7000 0.9958 1.0000
44.7100 2.9900 1.0000
44.7200 1.0014 1.0000
44.7300 0.0000 1.0000
44.7400 0.0000 1.0000
44.7500 3.9878 1.0000
44.7600 1.0045 1.0000
44.7700 3.9993 1.0000
44.7800 0.0000 1.0000
44.7900 0.9774 1.0000
44.8000 3.9963 1.0000
44.8100 1.9883 1.0000
44.8200 0.9756 1.0000
44.8300 3.9724 1.0000
44.8400 0.9924 1.0000
44.8500 0.0000 1.0000
44.8600 0.0000 1.0000
44.8700 0.0000 1.0000
44.8800 0.9954 1.0000
44.8900 1.0055 1.0000
44.9000 1.9742 1.0000
44.9100 0.9794 1.0000
44.9200 2.9987 1.0000
44.9300 4.0024 1.0000
44.9400 0.9977 1.0000
44.9500 2.9777 1.0000
44.9600 0.0000 1.0000
44.9700 0.0000 1.0000
44.9800 0.9765 1.0000
44.9900 4.9624 1.0000
45.0000 0.0000 1.0000
45.0100 2.9793 1.0000
45.0200 0.0000 1.0000
45.0300 2.9704 1.0000
45.0400 0.9984 1.0000
45.0500 0.9994 1.0000
45.0600 1.9832 1.0000
45.0700 0.9794 1.0000
45.0800 0.0000 1.0000
45.0900 0.9945 1.0000
45.1000 1.9850 1.0000
45.1100 0.9957 1.0000
45.1200 2.9856 1.0000
45.1300 0.0000 1.0000
45.1400 3.9606 1.0000
45.1500 0.0000 1.0000
45.1600 1.9760 1.0000
45.1700 0.9585 1.0000
45.1800 3.9848 1.0000
45.1900 1.9945 1.0000
45.2000 3.9608 1.0000
45.2100 1.9909 1.0000
45.2200 3.9899 1.0000
45.2300 0.0000 1.0000
45.2400 1.1515 1.0000
45.2500 0.9906 1.0000
45.2600 0.9953 1.0000
45.2700 2.9889 1.0000
45.2800 0.9978 1.0000
45.2900 0.9794 1.0000
45.3000 1.9947 1.0000
45.3100 2.0088 1.0000
45.3200 1.0166 1.0000
45.3300 4.9170 1.0000
45.3400 2.9806 1.0000
45.3500 2.9854 1.0000
45.3600 1.0169 1.0000
45.3700 1.9944 1.0000
45.3800 0.9983 1.0000
45.3900 2.9719 1.0000
45.4000 4.0136 1.0000
45.4100 0.9783 1.0000
45.4200 4.0212 1.0000
45.4300 1.0116 1.0000
45.4400 0.9997 1.0000
45.4500 2.9875 1.0000
45.4600 3.0277 1.0000
45.4700 0.9955 1.0000
45.4800 3.9652 1.0000
45.4900 0.0000 1.0000
45.5000 3.0083 1.0000
45.5100 0.9794 1.0000
45.5200 0.0000 1.0000
45.5300 1.9455 1.0000
45.5400 0.0000 1.0000
45.5500 0.0000 1.0000
45.5600 2.9869 1.0000
45.5700 0.9958 1.0000
45.5800 0.0000 1.0000
45.5900 2.9614 1.0000
45.6000 4.9949 1.0000
45.6100 3.9725 1.0000
45.6200 0.9839 1.0000
45.6300 1.0049 1.0000
45.6400 0.0000 1.0000
45.6500 1.9861 1.0000
45.6600 1.9813 1.0000
45.6700 0.9908 1.0000
45.6800 1.9948 1.0000
45.6900 0.0000 1.0000
45.7000 1.9831 1.0000
45.7100 1.0053 1.0000
45.7200 5.0139 1.0000
45.7300 0.0000 1.0000
45.7400 0.9969 1.0000
45.7500 1.9586 1.0000
45.7600 0.0000 1.0000
45.7700 0.0000 1.0000
45.7800 1.9881 1.0000
45.7900 2.9579 1.0000
45.8000 0.9755 1.0000
45.8100 1.9875 1.0000
45.8200 1.0004 1.0000
45.8300 0.9998 1.0000
45.8400 1.9834 1.0000
45.8500 2.0004 1.0000
45.8600 1.9496 1.0000
45.8700 1.0171 1.0000
45.8800 5.9086 1.0000
45.8900 0.9984 1.0000
45.9000 1.9778 1.0000
45.9100 3.8826 1.0000
45.9200 1.9928 1.0000
45.9300 0.0000 1.0000
45.9400 1.0054 1.0000
45.9500 4.9880 1.0000
45.9600 0.0000 1.0000
45.9700 2.0612 1.0000
45.9800 0.0000 1.0000
45.9900 0.0000 1.0000
46.0000 2.0071 1.0000
46.0100 1.9931 1.0000
46.0200 3.0512 1.0000
46.0300 1.9775 1.0000
46.0400 1.0015 1.0000
46.0500 3.9747 1.0000
46.0600 1.9999 1.0000
46.0700 0.0000 1.0000
46.0800 4.9640 1.0000
46.0900 0.0000 1.0000
46.1000 3.9577 1.0000
46.1100 1.9618 1.0000
46.1200 0.9703 1.0000
46.1300 1.9942 1.0000
46.1400 0.9865 1.0000
46.1500 1.9670 1.0000
46.1600 0.0000 1.0000
46.1700 0.9844 1.0000
46.1800 1.9893 1.0000
46.1900 1.9989 1.0000
46.2000 2.0367 1.0000
46.2100 2.1460 1.0000
46.2200 1.0022 1.0000
46.2300 1.9581 1.0000
46.2400 1.9706 1.0000
46.2500 0.9873 1.0000
46.2600 2.0127 1.0000
46.2700 3.0283 1.0000
46.2800 2.9907 1.0000
46.2900 0.0000 1.0000
46.3000 1.9754 1.0000
46.3100 0.0000 1.0000
46.3200 4.0030 1.0000
46.3300 0.0000 1.0000
46.3400 3.9602 1.0000
46.3500 3.9346 1.0000
46.3600 1.9687 1.0000
46.3700 1.9964 1.0000
46.3800 0.0000 1.0000
46.3900 0.9776 1.0000
46.4000 4.0056 1.0000
46.4100 3.0381 1.0000
46.4200 1.0038 1.0000
46.4300 3.0002 1.0000
46.4400 0.9904 1.0000
46.4500 0.0000 1.0000
46.4600 2.9611 1.0000
46.4700 1.0109 1.0000
46.4800 2.9890 1.0000
46.4900 2.0064 1.0000
46.5000 0.9960 1.0000
46.5100 0.0000 1.0000
46.5200 0.0000 1.0000
46.5300 1.9852 1.0000
46.5400 3.0073 1.0000
46.5500 0.0000 1.0000
46.5600 0.9964 1.0000
46.5700 1.0175 1.0000
46.5800 3.9854 1.0000
46.5900 0.0000 1.0000
46.6000 0.9941 1.0000
46.6100 0.0000 1.0000
46.6200 1.9822 1.0000
46.6300 1.0092 1.0000
46.6400 0.9945 1.0000
46.6500 2.9923 1.0000
46.6600 0.0000 1.0000
46.6700 2.0078 1.0000
46.6800 0.0000 1.0000
46.6900 0.9885 1.0000
46.7000 0.9995 1.0000
46.7100 1.0013 1.0000
46.7200 2.0322 1.0000
46.7300 4.0004 1.0000
46.7400 3.9752 1.0000
46.7500 0.0000 1.0000
46.7600 1.9951 1.0000
46.7700 2.9792 1.0000
46.7800 1.9667 1.0000
46.7900 0.0000 1.0000
46.8000 0.9755 1.0000
46.8100 3.9760 1.0000
46.8200 0.9979 1.0000
46.8300 2.9780 1.0000
46.8400 1.0001 1.0000
46.8500 3.9925 1.0000
46.8600 0.9703 1.0000
46.8700 2.9830 1.0000
46.8800 0.9918 1.0000
46.8900 1.0199 1.0000
46.9000 1.9957 1.0000
46.9100 0.9853 1.0000
46.9200 2.0020 1.0000
46.9300 0.9755 1.0000
46.9400 0.9756 1.0000
46.9500 0.9762 1.0000
46.9600 1.0019 1.0000
46.9700 1.9935 1.0000
46.9800 0.9977 1.0000
46.9900 0.0000 1.0000
47.0000 0.0000 1.0000
47.0100 1.9844 1.0000
47.0200 0.9869 1.0000
47.0300 1.9819 1.0000
47.0400 5.9686 1.0000
47.0500 1.9828 1.0000
47.0600 2.9974 1.0000
47.0700 2.0180 1.0000
47.0800 0.0000 1.0000
47.0900 2.9560 1.0000
47.1000 0.9854 1.0000
47.1100 0.9977 1.0000
47.1200 0.0000 1.0000
47.1300 4.0191 1.0000
47.1400 0.9848 1.0000
47.1500 1.0085 1.0000
47.1600 1.0019 1.0000
47.1700 0.0000 1.0000
47.1800 3.0172 1.0000
47.1900 0.0000 1.0000
47.2000 0.9924 1.0000
47.2100 0.0000 1.0000
47.2200 2.0024 1.0000
47.2300 0.0000 1.0000
47.2400 3.9763 1.0000
47.2500 1.9949 1.0000
47.2600 2.0149 1.0000
47.2700 0.0000 1.0000
47.2800 1.0010 1.0000
47.2900 1.0017 1.0000
47.3000 4.0150 1.0000
47.3100 0.0000 1.0000
47.3200 3.0072 1.0000
47.3300 1.0010 1.0000
47.3400 0.0000 1.0000
47.3500 1.0309 1.0000
47.3600 0.9825 1.0000
47.3700 2.9585 1.0000
47.3800 3.0206 1.0000
47.3900 0.9767 1.0000
47.4000 0.9851 1.0000
47.4100 1.9771 1.0000
47.4200 0.0000 1.0000
47.4300 1.9799 1.0000
47.4400 0.9701 1.0000
47.4500 0.0000 1.0000
47.4600 2.0034 1.0000
47.4700 1.9689 1.0000
47.4800 0.9716 1.0000
47.4900 0.9969 1.0000
47.5000 0.0000 1.0000
47.5100 0.0000 1.0000
47.5200 3.0132 1.0000
47.5300 0.9870 1.0000
47.5400 0.0000 1.0000
47.5500 0.9824 1.0000
47.5600 2.9900 1.0000
47.5700 2.0205 1.0000
47.5800 0.9853 1.0000
47.5900 0.9994 1.0000
47.6000 1.9868 1.0000
47.6100 0.9862 1.0000
47.6200 1.9610 1.0000
47.6300 2.9797 1.0000
47.6400 3.9891 1.0000
47.6500 2.9920 1.0000
47.6600 5.9138 1.0000
47.6700 1.9964 1.0000
47.6800 3.9849 1.0000
47.6900 0.0000 1.0000
47.7000 0.0000 1.0000
47.7100 1.9660 1.0000
47.7200 1.0237 1.0000
47.7300 2.0047 1.0000
47.7400 1.0128 1.0000
47.7500 3.0294 1.0000
47.7600 0.9765 1.0000
47.7700 1.9647 1.0000
47.7800 2.9628 1.0000
47.7900 0.0000 1.0000
47.8000 0.0000 1.0000
47.8100 0.0000 1.0000
47.8200 0.0000 1.0000
47.8300 1.9923 1.0000
47.8400 3.0273 1.0000
47.8500 1.9690 1.0000
47.8600 1.0049 1.0000
47.8700 0.9943 1.0000
47.8800 1.9767 1.0000
47.8900 1.9812 1.0000
47.9000 1.9510 1.0000
47.9100 4.9512 1.0000
47.9200 0.9893 1.0000
47.9300 0.0000 1.0000
47.9400 1.1515 1.0000
47.9500 2.0277 1.0000
47.9600 2.0034 1.0000
47.9700 0.0000 1.0000
47.9800 1.9737 1.0000
47.9900 0.0000 1.0000
48.0000 0.9711 1.0000
48.0100 0.9997 1.0000
48.0200 0.0000 1.0000
48.0300 2.9928 1.0000
48.0400 1.9779 1.0000
48.0500 5.0279 1.0000
48.0600 0.9890 1.0000
48.0700 0.9939 1.0000
48.0800 2.0012 1.0000
48.0900 0.0000 1.0000
48.1000 1.0078 1.0000
48.1100 3.0298 1.0000
48.1200 0.0000 1.0000
48.1300 3.9196 1.0000
48.1400 2.0055 1.0000
48.1500 0.0000 1.0000
48.1600 1.9513 1.0000
48.1700 1.0106 1.0000
48.1800 0.0000 1.0000
48.1900 0.0000 1.0000
48.2000 0.9958 1.0000
48.2100 1.9883 1.0000
48.2200 0.9863 1.0000
48.2300 2.9819 1.0000
48.2400 2.0013 1.0000
48.2500 2.0067 1.0000
48.2600 0.9933 1.0000
48.2700 3.9844 1.0000
48.2800 3.9995 1.0000
48.2900 5.9449 1.0000
48.3000 2.9907 1.0000
48.3100 2.9869 1.0000
48.3200 2.0011 1.0000
48.3300 1.9979 1.0000
48.3400 0.9981 1.0000
48.3500 1.9937 1.0000
48.3600 2.0101 1.0000
48.3700 3.9800 1.0000
48.3800 1.9922 1.0000
48.3900 2.9833 1.0000
48.4000 0.0000 1.0000
48.4100 1.9939 1.0000
48.4200 0.9792 1.0000
48.4300 2.9945 1.0000
48.4400 2.0141 1.0000
48.4500 1.9775 1.0000
48.4600 0.0000 1.0000
48.4700 0.9869 1.0000
48.4800 0.0000 1.0000
48.4900 0.9612 1.0000
48.5000 1.9704 1.0000
48.5100 1.9952 1.0000
48.5200 4.9636 1.0000
48.5300 0.0000 1.0000
48.5400 0.9952 1.0000
48.5500 1.9799 1.0000
48.5600 2.9725 1.0000
48.5700 3.9599 1.0000
48.5800 2.9714 1.0000
48.5900 1.0177 1.0000
48.6000 3.0143 1.0000
48.6100 0.9871 1.0000
48.6200 3.0118 1.0000
48.6300 2.9424 1.0000
48.6400 0.9890 1.0000
48.6500 0.9736 1.0000
48.6600 4.0125 1.0000
48.6700 1.9695 1.0000
48.6800 0.9840 1.0000
48.6900 2.9558 1.0000
48.7000 3.9806 1.0000
48.7100 0.0000 1.0000
48.7200 1.0014 1.0000
48.7300 0.0000 1.0000
48.7400 1.0030 1.0000
48.7500 0.9893 1.0000
48.7600 0.0000 1.0000
48.7700 5.9430 1.0000
48.7800 0.0000 1.0000
48.7900 2.0073 1.0000
48.8000 3.9580 1.0000
48.8100 0.9929 1.0000
48.8200 1.9782 1.0000
48.8300 2.9767 1.0000
48.8400 0.0000 1.0000
48.8500 1.9930 1.0000
48.8600 0.9861 1.0000
48.8700 2.0017 1.0000
48.8800 2.9644 1.0000
48.8900 1.0016 1.0000
48.9000 1.9961 1.0000
48.9100 2.9252 1.0000
48.9200 1.9698 1.0000
48.9300 0.9880 1.0000
48.9400 0.0000 1.0000
48.9500 2.9520 1.0000
48.9600 1.9808 1.0000
48.9700 1.0159 1.0000
48.9800 1.9649 1.0000
48.9900 0.0000 1.0000
49.0000 0.9880 1.0000
49.0100 3.0158 1.0000
49.0200 0.9919 1.0000
49.0300 2.9988 1.0000
49.0400 1.0003 1.0000
49.0500 0.9976 1.0000
49.0600 0.9983 1.0000
49.0700 3.9865 1.0000
49.0800 3.0117 1.0000
49.0900 0.9922 1.0000
49.1000 3.0357 1.0000
49.1100 2.0142 1.0000
49.1200 2.9519 1.0000
49.1300 0.9901 1.0000
49.1400 0.9851 1.0000
49.1500 0.9967 1.0000
49.1600 0.9948 1.0000
49.1700 2.9479 1.0000
49.1800 0.9675 1.0000
49.1900 2.9792 1.0000
49.2000 1.9961 1.0000
49.2100 0.9918 1.0000
49.2200 4.9589 1.0000
49.2300 2.9778 1.0000
49.2400 0.9774 1.0000
49.2500 1.0019 1.0000
49.2600 1.0134 1.0000
49.2700 3.0124 1.0000
49.2800 3.9844 1.0000
49.2900 1.0017 1.0000
49.3000 4.9742 1.0000
49.3100 1.9662 1.0000
49.3200 0.9629 1.0000
49.3300 0.9922 1.0000
49.3400 3.9994 1.0000
49.3500 4.9445 1.0000
49.3600 0.0000 1.0000
49.3700 4.9765 1.0000
49.3800 2.9575 1.0000
49.3900 3.9456 1.0000
49.4000 1.0059 1.0000
49.4100 0.9941 1.0000
49.4200 0.0000 1.0000
49.4300 0.9895 1.0000
49.4400 5.0432 1.0000
49.4500 1.9745 1.0000
49.4600 2.0256 1.0000
49.4700 2.0139 1.0000
49.4800 2.9824 1.0000
49.4900 0.0000 1.0000
49.5000 3.9482 1.0000
49.5100 3.9760 1.0000
49.5200 1.9984 1.0000
49.5300 3.9748 1.0000
49.5400 0.0000 1.0000
49.5500 0.9966 1.0000
49.5600 1.9686 1.0000
49.5700 0.0000 1.0000
49.5800 0.9839 1.0000
49.5900 1.9592 1.0000
49.6000 3.9787 1.0000
49.6100 5.9904 1.0000
49.6200 0.9966 1.0000
49.6300 1.0137 1.0000
49.6400 0.9746 1.0000
49.6500 0.9658 1.0000
49.6600 1.9794 1.0000
49.6700 0.9826 1.0000
49.6800 1.9689 1.0000
49.6900 3.0892 1.0000
49.7000 2.0237 1.0000
49.7100 2.9851 1.0000
49.7200 1.9868 1.0000
49.7300 0.9936 1.0000
49.7400 3.9873 1.0000
49.7500 0.0000 1.0000
49.7600 0.9956 1.0000
49.7700 0.0000 1.0000
49.7800 1.9678 1.0000
49.7900 3.9889 1.0000
49.8000 2.0052 1.0000
49.8100 1.9781 1.0000
49.8200 0.0000 1.0000
49.8300 2.9761 1.0000
49.8400 0.9920 1.0000
49.8500 1.9869 1.0000
49.8600 2.9835 1.0000
49.8700 0.0000 1.0000
49.8800 2.0071 1.0000
49.8900 3.9483 1.0000
49.9000 1.9332 1.0000
49.9100 0.0000 1.0000
49.9200 0.9827 1.0000
49.9300 0.0000 1.0000
49.9400 1.0019 1.0000
49.9500 5.9909 1.0000
49.9600 2.9849 1.0000
49.9700 1.0127 1.0000
49.9800 1.0136 1.0000
49.9900 0.0000 1.0000
50.0000 0.9893 1.0000
50.0100 3.9936 1.0000
50.0200 3.0180 1.0000
50.0300 1.9748 1.0000
50.0400 1.9875 1.0000
50.0500 0.0000 1.0000
50.0600 0.9895 1.0000
50.0700 0.0000 1.0000
50.0800 0.9994 1.0000
50.0900 0.9827 1.0000
50.1000 0.0000 1.0000
50.1100 0.0000 1.0000
50.1200 6.9402 1.0000
50.1300 0.0000 1.0000
50.1400 2.9739 1.0000
50.1500 0.9932 1.0000
50.1600 0.9822 1.0000
50.1700 1.9791 1.0000
50.1800 3.9745 1.0000
50.1900 0.0000 1.0000
50.2000 2.0265 1.0000
50.2100 0.0000 1.0000
50.2200 3.0196 1.0000
50.2300 1.9810 1.0000
50.2400 2.9941 1.0000
50.2500 1.0019 1.0000
50.2600 2.0197 1.0000
50.2700 0.9988 1.0000
50.2800 0.0000 1.0000
50.2900 0.0000 1.0000
50.3000 5.0125 1.0000
50.3100 1.9867 1.0000
50.3200 0.9906 1.0000
50.3300 2.9946 1.0000
50.3400 2.0025 1.0000
50.3500 2.9749 1.0000
50.3600 2.9731 1.0000
50.3700 1.9719 1.0000
50.3800 0.9800 1.0000
50.3900 3.9943 1.0000
50.4000 1.0011 1.0000
50.4100 1.9929 1.0000
50.4200 0.9959 1.0000
50.4300 1.9570 1.0000
50.4400 1.9703 1.0000
50.4500 1.0186 1.0000
50.4600 0.9831 1.0000
50.4700 1.0049 1.0000
50.4800 0.9886 1.0000
50.4900 3.9837 1.0000
50.5000 1.9755 1.0000
50.5100 1.0045 1.0000
50.5200 0.9865 1.0000
50.5300 1.9867 1.0000
50.5400 2.0054 1.0000
50.5500 2.0162 1.0000
50.5600 2.0167 1.0000
50.5700 1.9900 1.0000
50.5800 3.0305 1.0000
50.5900 2.9767 1.0000
50.6000 4.9354 1.0000
50.6100 0.0000 1.0000
50.6200 0.0000 1.0000
50.6300 0.0000 1.0000
50.6400 1.0002 1.0000
50.6500 0.0000 1.0000
50.6600 0.9996 1.0000
50.6700 1.0156 1.0000
50.6800 0.0000 1.0000
50.6900 3.0240 1.0000
50.7000 1.9724 1.0000
50.7100 0.9865 1.0000
50.7200 1.9570 1.0000
50.7300 1.9591 1.0000
50.7400 2.0271 1.0000
50.7500 0.9945 1.0000
50.7600 0.9901 1.0000
50.7700 1.0015 1.0000
50.7800 1.9803 1.0000
50.7900 2.9930 1.0000
50.8000 1.0149 1.0000
50.8100 2.9751 1.0000
50.8200 2.9749 1.0000
50.8300 0.0000 1.0000
50.8400 2.9731 1.0000
50.8500 3.0396 1.0000
50.8600 1.9937 1.0000
50.8700 1.9872 1.0000
50.8800 2.0005 1.0000
50.8900 1.9524 1.0000
50.9000 1.9839 1.0000
50.9100 4.9033 1.0000
50.9200 3.0000 1.0000
50.9300 4.9487 1.0000
50.9400 0.9782 1.0000
50.9500 1.9637 1.0000
50.9600 1.0048 1.0000
50.9700 1.9933 1.0000
50.9800 2.0060 1.0000
50.9900 2.9945 1.0000
51.0000 0.0000 1.0000
51.0100 0.9918 1.0000
51.0200 2.0070 1.0000
51.0300 0.0000 1.0000
51.0400 5.1461 1.0000
51.0500 0.0000 1.0000
51.0600 2.0148 1.0000
51.0700 3.9121 1.0000
51.0800 2.9846 1.0000
51.0900 3.9264 1.0000
51.1000 1.9927 1.0000
51.1100 0.9869 1.0000
51.1200 0.9906 1.0000
51.1300 0.0000 1.0000
51.1400 0.9942 1.0000
51.1500 1.9984 1.0000
51.1600 2.0144 1.0000
51.1700 1.9938 1.0000
51.1800 3.9669 1.0000
51.1900 0.0000 1.0000
51.2000 0.0000 1.0000
51.2100 3.0165 1.0000
51.2200 0.9998 1.0000
51.2300 3.9416 1.0000
51.2400 3.9559 1.0000
51.2500 1.9785 1.0000
51.2600 0.0000 1.0000
51.2700 0.9905 1.0000
51.2800 0.9942 1.0000
51.2900 1.0033 1.0000
51.3000 0.0000 1.0000
51.3100 2.0097 1.0000
51.3200 1.9809 1.0000
51.3300 0.9902 1.0000
51.3400 0.9728 1.0000
51.3500 3.9737 1.0000
51.3600 2.9994 1.0000
51.3700 2.9990 1.0000
51.3800 1.0008 1.0000
51.3900 0.9835 1.0000
51.4000 1.9887 1.0000
51.4100 1.9644 1.0000
51.4200 1.9783 1.0000
51.4300 3.0028 1.0000
51.4400 4.0144 1.0000
51.4500 0.9736 1.0000
51.4600 0.0000 1.0000
51.4700 4.9708 1.0000
51.4800 1.0091 1.0000
51.4900 0.9883 1.0000
51.5000 1.9880 1.0000
51.5100 0.9969 1.0000
51.5200 1.0008 1.0000
51.5300 4.9874 1.0000
51.5400 0.0000 1.0000
51.5500 1.9544 1.0000
51.5600 2.0144 1.0000
51.5700 0.0000 1.0000
51.5800 3.0502 1.0000
51.5900 2.0026 1.0000
51.6000 1.9890 1.0000
51.6100 1.0021 1.0000
51.6200 0.0000 1.0000
51.6300 0.0000 1.0000
51.6400 2.0160 1.0000
51.6500 1.9951 1.0000
51.6600 0.9829 1.0000
51.6700 0.0000 1.0000
51.6800 0.0000 1.0000
51.6900 1.9629 1.0000
51.7000 1.9928 1.0000
51.7100 3.9738 1.0000
51.7200 0.0000 1.0000
51.7300 2.0053 1.0000
51.7400 2.0109 1.0000
51.7500 0.0000 1.0000
51.7600 1.9845 1.0000
51.7700 1.0116 1.0000
51.7800 2.0136 1.0000
51.7900 0.0000 1.0000
51.8000 2.9910 1.0000
51.8100 0.0000 1.0000
51.8200 2.9889 1.0000
51.8300 2.0126 1.0000
51.8400 2.9419 1.0000
51.8500 0.9954 1.0000
51.8600 0.9980 1.0000
51.8700 0.9783 1.0000
51.8800 0.9861 1.0000
51.8900 2.9640 1.0000
51.9000 1.9900 1.0000
51.9100 3.9857 1.0000
51.9200 1.9743 1.0000
51.9300 2.9571 1.0000
51.9400 1.0237 1.0000
51.9500 0.9825 1.0000
51.9600 5.0065 1.0000
51.9700 1.9872 1.0000
51.9800 1.0037 1.0000
51.9900 1.9780 1.0000
52.0000 0.0000 1.0000
52.0100 0.9762 1.0000
52.0200 1.9718 1.0000
52.0300 1.9857 1.0000
52.0400 0.0000 1.0000
52.0500 3.0099 1.0000
52.0600 2.0257 1.0000
52.0700 1.9577 1.0000
52.0800 1.9332 1.0000
52.0900 0.9841 1.0000
52.1000 3.9903 1.0000
52.1100 3.9691 1.0000
52.1200 2.9838 1.0000
52.1300 0.9961 1.0000
52.1400 1.9814 1.0000
52.1500 0.0000 1.0000
52.1600 1.9937 1.0000
52.1700 0.0000 1.0000
52.1800 5.9058 1.0000
52.1900 2.9772 1.0000
52.2000 3.9881 1.0000
52.2100 3.9879 1.0000
52.2200 3.0005 1.0000
52.2300 2.0036 1.0000
52.2400 4.0201 1.0000
52.2500 1.9981 1.0000
52.2600 1.0072 1.0000
52.2700 0.9988 1.0000
52.2800 1.9920 1.0000
52.2900 1.0010 1.0000
52.3000 6.9698 1.0000
52.3100 0.9870 1.0000
52.3200 0.9901 1.0000
52.3300 2.9857 1.0000
52.3400 0.9966 1.0000
52.3500 0.0000 1.0000
52.3600 0.0000 1.0000
52.3700 2.9669 1.0000
52.3800 2.9843 1.0000
52.3900 3.9860 1.0000
52.4000 0.9965 1.0000
52.4100 1.9954 1.0000
52.4200 0.0000 1.0000
52.4300 0.0000 1.0000
52.4400 3.9283 1.0000
52.4500 0.9871 1.0000
52.4600 0.0000 1.0000
52.4700 1.9858 1.0000
52.4800 2.0445 1.0000
52.4900 0.0000 1.0000
52.5000 0.0000 1.0000
52.5100 2.9909 1.0000
52.5200 3.9702 1.0000
52.5300 0.9948 1.0000
52.5400 0.9837 1.0000
52.5500 0.0000 1.0000
52.5600 1.9986 1.0000
52.5700 0.9862 1.0000
52.5800 4.9663 1.0000
52.5900 1.9713 1.0000
52.6000 2.9564 1.0000
52.6100 0.9873 1.0000
52.6200 1.9479 1.0000
52.6300 2.0156 1.0000
52.6400 3.0234 1.0000
52.6500 0.9955 1.0000
52.6600 2.0113 1.0000
52.6700 0.9939 1.0000
52.6800 0.9942 1.0000
52.6900 1.0002 1.0000
52.7000 1.9470 1.0000
52.7100 1.9485 1.0000
52.7200 1.0149 1.0000
52.7300 0.0000 1.0000
52.7400 3.9703 1.0000
52.7500 3.9434 1.0000
52.7600 1.0101 1.0000
52.7700 1.9828 1.0000
52.7800 3.0220 1.0000
52.7900 2.0170 1.0000
52.8000 1.9497 1.0000
52.8100 0.0000 1.0000
52.8200 0.0000 1.0000
52.8300 1.9954 1.0000
52.8400 1.0007 1.0000
52.8500 1.9915 1.0000
52.8600 1.0030 1.0000
52.8700 0.9711 1.0000
52.8800 0.0000 1.0000
52.8900 2.9500 1.0000
52.9000 0.0000 1.0000
52.9100 2.9521 1.0000
52.9200 0.9881 1.0000
52.9300 0.0000 1.0000
52.9400 0.9972 1.0000
52.9500 1.9981 1.0000
52.9600 1.9877 1.0000
52.9700 1.9519 1.0000
52.9800 0.0000 1.0000
52.9900 1.9841 1.0000
53.0000 6.9928 1.0000
53.0100 2.9602 1.0000
53.0200 6.9655 1.0000
53.0300 1.9795 1.0000
53.0400 1.9805 1.0000
53.0500 0.9955 1.0000
53.0600 3.0049 1.0000
53.0700 2.9851 1.0000
53.0800 2.9675 1.0000
53.0900 2.0178 1.0000
53.1000 0.9907 1.0000
53.1100 1.9981 1.0000
53.1200 7.9918 1.0000
53.1300 3.0171 1.0000
53.1400 1.0001 1.0000
53.1500 2.0071 1.0000
53.1600 0.9942 1.0000
53.1700 3.1383 1.0000
53.1800 0.9990 1.0000
53.1900 0.0000 1.0000
53.2000 5.9697 1.0000
53.2100 0.9919 1.0000
53.2200 0.9746 1.0000
53.2300 1.0001 1.0000
53.2400 1.0039 1.0000
53.2500 0.0000 1.0000
53.2600 2.9838 1.0000
53.2700 2.0140 1.0000
53.2800 3.0110 1.0000
53.2900 2.9956 1.0000
53.3000 2.0171 1.0000
53.3100 1.9779 1.0000
53.3200 1.9694 1.0000
53.3300 3.9693 1.0000
53.3400 1.0009 1.0000
53.3500 0.9847 1.0000
53.3600 2.0054 1.0000
53.3700 1.0068 1.0000
53.3800 0.9885 1.0000
53.3900 1.9857 1.0000
53.4000 0.9945 1.0000
53.4100 0.0000 1.0000
53.4200 0.0000 1.0000
53.4300 1.0016 1.0000
53.4400 2.9905 1.0000
53.4500 1.9947 1.0000
53.4600 2.1505 1.0000
53.4700 1.9677 1.0000
53.4800 1.9962 1.0000
53.4900 0.0000 1.0000
53.5000 4.9626 1.0000
53.5100 1.9723 1.0000
53.5200 1.9886 1.0000
53.5300 3.0141 1.0000
53.5400 0.9682 1.0000
53.5500 1.9644 1.0000
53.5600 5.1433 1.0000
53.5700 2.9721 1.0000
53.5800 1.9898 1.0000
53.5900 2.0004 1.0000
53.6000 3.0389 1.0000
53.6100 0.0000 1.0000
53.6200 3.9529 1.0000
53.6300 0.0000 1.0000
53.6400 0.0000 1.0000
53.6500 1.9907 1.0000
53.6600 0.9995 1.0000
53.6700 0.9910 1.0000
53.6800 0.0000 1.0000
53.6900 0.0000 1.0000
53.7000 1.0312 1.0000
53.7100 0.9928 1.0000
53.7200 0.9922 1.0000
53.7300 1.0105 1.0000
53.7400 3.0090 1.0000
53.7500 0.9955 1.0000
53.7600 0.9990 1.0000
53.7700 1.9806 1.0000
53.7800 1.0059 1.0000
53.7900 0.0000 1.0000
53.8000 0.9755 1.0000
53.8100 1.9824 1.0000
53.8200 0.0000 1.0000
53.8300 3.9823 1.0000
53.8400 3.9730 1.0000
53.8500 0.9949 1.0000
53.8600 3.9736 1.0000
53.8700 1.9947 1.0000
53.8800 1.9826 1.0000
53.8900 0.9983 1.0000
53.9000 1.9761 1.0000
53.9100 1.0114 1.0000
53.9200 5.9777 1.0000
53.9300 1.9805 1.0000
53.9400 0.0000 1.0000
53.9500 1.0026 1.0000
53.9600 1.9688 1.0000
53.9700 0.0000 1.0000
53.9800 4.9520 1.0000
53.9900 1.9544 1.0000
54.0000 0.9997 1.0000
54.0100 3.9488 1.0000
54.0200 2.9453 1.0000
54.0300 0.0000 1.0000
54.0400 0.0000 1.0000
54.0500 0.9953 1.0000
54.0600 2.9718 1.0000
54.0700 1.9875 1.0000
54.0800 0.0000 1.0000
54.0900 1.9860 1.0000
54.1000 3.0084 1.0000
54.1100 1.0072 1.0000
54.1200 0.9871 1.0000
54.1300 1.9926 1.0000
54.1400 3.0136 1.0000
54.1500 1.9754 1.0000
54.1600 1.9962 1.0000
54.1700 4.9334 1.0000
54.1800 1.9850 1.0000
54.1900 1.0015 1.0000
54.2000 3.9454 1.0000
54.2100 2.9788 1.0000
54.2200 0.9782 1.0000
54.2300 1.9930 1.0000
54.2400 0.9803 1.0000
54.2500 0.9956 1.0000
54.2600 2.9294 1.0000
54.2700 2.9707 1.0000
54.2800 2.9709 1.0000
54.2900 0.0000 1.0000
54.3000 3.9900 1.0000
54.3100 3.0060 1.0000
54.3200 2.0135 1.0000
54.3300 2.9452 1.0000
54.3400 3.9290 1.0000
54.3500 1.0226 1.0000
54.3600 2.0219 1.0000
54.3700 1.9973 1.0000
54.3800 0.9975 1.0000
54.3900 2.0245 1.0000
54.4000 1.0081 1.0000
54.4100 2.9907 1.0000
54.4200 2.0120 1.0000
54.4300 1.9969 1.0000
54.4400 0.0000 1.0000
54.4500 1.9900 1.0000
54.4600 0.9783 1.0000
54.4700 0.0000 1.0000
54.4800 3.9989 1.0000
54.4900 0.9875 1.0000
54.5000 0.9794 1.0000
54.5100 0.9756 1.0000
54.5200 1.0011 1.0000
54.5300 1.9891 1.0000
54.5400 2.0111 1.0000
54.5500 2.9677 1.0000
54.5600 0.9997 1.0000
54.5700 0.9958 1.0000
54.5800 2.9882 1.0000
54.5900 0.9984 1.0000
54.6000 1.9841 1.0000
54.6100 4.0252 1.0000
54.6200 2.9935 1.0000
54.6300 2.9416 1.0000
54.6400 0.0000 1.0000
54.6500 1.9761 1.0000
54.6600 0.0000 1.0000
54.6700 1.9928 1.0000
54.6800 2.9366 1.0000
54.6900 3.0146 1.0000
54.7000 2.0027 1.0000
54.7100 0.9879 1.0000
54.7200 0.0000 1.0000
54.7300 0.0000 1.0000
54.7400 2.0376 1.0000
54.7500 1.9993 1.0000
54.7600 2.0090 1.0000
54.7700 7.0033 1.0000
54.7800 3.9664 1.0000
54.7900 3.0432 1.0000
54.8000 2.0018 1.0000
54.8100 0.9862 1.0000
54.8200 3.9526 1.0000
54.8300 1.9808 1.0000
54.8400 3.9964 1.0000
54.8500 0.9873 1.0000
54.8600 1.9742 1.0000
54.8700 2.9569 1.0000
54.8800 0.0000 1.0000
54.8900 1.0114 1.0000
54.9000 0.0000 1.0000
54.9100 2.0167 1.0000
54.9200 2.9667 1.0000
54.9300 1.9747 1.0000
54.9400 2.0039 1.0000
54.9500 2.0059 1.0000
54.9600 4.9536 1.0000
54.9700 3.0077 1.0000
54.9800 1.9812 1.0000
54.9900 3.0038 1.0000
55.0000 1.0039 1.0000
55.0100 3.9314 1.0000
55.0200 0.9938 1.0000
55.0300 0.9849 1.0000
55.0400 0.0000 1.0000
55.0500 2.0010 1.0000
55.0600 0.9958 1.0000
55.0700 0.0000 1.0000
55.0800 2.9684 1.0000
55.0900 0.9881 1.0000
55.1000 0.0000 1.0000
55.1100 1.9763 1.0000
55.1200 1.9963 1.0000
55.1300 2.9483 1.0000
55.1400 0.9926 1.0000
55.1500 0.9794 1.0000
55.1600 2.0284 1.0000
55.1700 4.0107 1.0000
55.1800 2.9811 1.0000
55.1900 1.0060 1.0000
55.2000 0.0000 1.0000
55.2100 1.0014 1.0000
55.2200 0.9792 1.0000
55.2300 0.9991 1.0000
55.2400 3.9777 1.0000
55.2500 0.9919 1.0000
55.2600 1.9692 1.0000
55.2700 3.9832 1.0000
55.2800 3.9755 1.0000
55.2900 1.9764 1.0000
55.3000 2.9369 1.0000
55.3100 2.9969 1.0000
55.3200 3.0170 1.0000
55.3300 1.9770 1.0000
55.3400 0.0000 1.0000
55.3500 1.9664 1.0000
55.3600 1.9941 1.0000
55.3700 1.9367 1.0000
55.3800 1.9970 1.0000
55.3900 0.0000 1.0000
55.4000 1.9630 1.0000
55.4100 1.9951 1.0000
55.4200 3.9355 1.0000
55.4300 0.0000 1.0000
55.4400 3.9882 1.0000
55.4500 3.9281 1.0000
55.4600 1.0294 1.0000
55.4700 2.9703 1.0000
55.4800 6.9983 1.0000
55.4900 3.0407 1.0000
55.5000 2.9689 1.0000
55.5100 1.0000 1.0000
55.5200 2.9960 1.0000
55.5300 1.9820 1.0000
55.5400 0.0000 1.0000
55.5500 0.0000 1.0000
55.5600 0.0000 1.0000
55.5700 5.1414 1.0000
55.5800 1.9856 1.0000
55.5900 0.0000 1.0000
55.6000 1.0199 1.0000
55.6100 2.0172 1.0000
55.6200 3.9718 1.0000
55.6300 2.9884 1.0000
55.6400 3.9722 1.0000
55.6500 4.0025 1.0000
55.6600 3.9866 1.0000
55.6700 0.9853 1.0000
55.6800 0.9883 1.0000
55.6900 2.1184 1.0000
55.7000 0.0000 1.0000
55.7100 3.9671 1.0000
55.7200 0.0000 1.0000
55.7300 4.0155 1.0000
55.7400 0.9889 1.0000
55.7500 0.0000 1.0000
55.7600 1.9931 1.0000
55.7700 0.0000 1.0000
55.7800 1.0039 1.0000
55.7900 0.9958 1.0000
55.8000 0.9893 1.0000
55.8100 1.0002 1.0000
55.8200 1.9838 1.0000
55.8300 0.9947 1.0000
55.8400 5.9965 1.0000
55.8500 2.9649 1.0000
55.8600 0.9984 1.0000
55.8700 2.9599 1.0000
55.8800 1.9783 1.0000
55.8900 5.0089 1.0000
55.9000 1.9757 1.0000
55.9100 1.0060 1.0000
55.9200 0.9880 1.0000
55.9300 3.0048 1.0000
55.9400 2.9836 1.0000
55.9500 1.0062 1.0000
55.9600 0.0000 1.0000
55.9700 1.9846 1.0000
55.9800 0.0000 1.0000
55.9900 0.9728 1.0000
56.0000 3.9926 1.0000
56.0100 1.0017 1.0000
56.0200 0.0000 1.0000
56.0300 0.0000 1.0000
56.0400 2.9923 1.0000
56.0500 2.0053 1.0000
56.0600 1.9814 1.0000
56.0700 2.0704 1.0000
56.0800 0.9949 1.0000
56.0900 0.9889 1.0000
56.1000 1.9763 1.0000
56.1100 1.9937 1.0000
56.1200 2.9927 1.0000
56.1300 1.9784 1.0000
56.1400 1.0058 1.0000
56.1500 2.0091 1.0000
56.1600 0.9861 1.0000
56.1700 1.0010 1.0000
56.1800 1.9964 1.0000
56.1900 4.9771 1.0000
56.2000 2.9768 1.0000
56.2100 1.9868 1.0000
56.2200 0.9901 1.0000
56.2300 2.0002 1.0000
56.2400 4.0030 1.0000
56.2500 1.0166 1.0000
56.2600 2.9854 1.0000
56.2700 1.9789 1.0000
56.2800 1.9767 1.0000
56.2900 1.9783 1.0000
56.3000 1.9942 1.0000
56.3100 1.0137 1.0000
56.3200 0.9711 1.0000
56.3300 3.0140 1.0000
56.3400 1.9808 1.0000
56.3500 0.9990 1.0000
56.3600 1.0054 1.0000
56.3700 2.9369 1.0000
56.3800 2.9382 1.0000
56.3900 0.0000 1.0000
56.4000 1.9723 1.0000
56.4100 4.9861 1.0000
56.4200 0.0000 1.0000
56.4300 1.9903 1.0000
56.4400 3.0046 1.0000
56.4500 0.0000 1.0000
56.4600 1.9725 1.0000
56.4700 1.9905 1.0000
56.4800 0.9975 1.0000
56.4900 0.9531 1.0000
56.5000 1.9975 1.0000
56.5100 0.0000 1.0000
56.5200 0.9893 1.0000
56.5300 1.9812 1.0000
56.5400 1.0017 1.0000
56.5500 2.9889 1.0000
56.5600 0.9958 1.0000
56.5700 1.9769 1.0000
56.5800 0.9994 1.0000
56.5900 2.0112 1.0000
56.6000 0.9789 1.0000
56.6100 2.0008 1.0000
56.6200 3.9660 1.0000
56.6300 3.0059 1.0000
56.6400 1.9778 1.0000
56.6500 3.0051 1.0000
56.6600 1.0134 1.0000
56.6700 0.0000 1.0000
56.6800 0.9972 1.0000
56.6900 0.9939 1.0000
56.7000 3.0011 1.0000
56.7100 0.9997 1.0000
56.7200 0.9890 1.0000
56.7300 1.9804 1.0000
56.7400 3.9498 1.0000
56.7500 0.9942 1.0000
56.7600 2.8997 1.0000
56.7700 0.9675 1.0000
56.7800 3.9640 1.0000
56.7900 0.9971 1.0000
56.8000 2.9823 1.0000
56.8100 1.9954 1.0000
56.8200 2.9987 1.0000
56.8300 0.9957 1.0000
56.8400 0.0000 1.0000
56.8500 0.9950 1.0000
56.8600 1.0060 1.0000
56.8700 0.0000 1.0000
56.8800 0.0000 1.0000
56.8900 2.0228 1.0000
56.9000 3.9521 1.0000
56.9100 2.0054 1.0000
56.9200 1.9766 1.0000
56.9300 3.9664 1.0000
56.9400 1.9749 1.0000
56.9500 2.9816 1.0000
56.9600 2.9791 1.0000
56.9700 3.9762 1.0000
56.9800 0.0000 1.0000
56.9900 1.9821 1.0000
57.0000 3.0221 1.0000
57.0100 7.9110 1.0000
57.0200 2.0021 1.0000
57.0300 3.0259 1.0000
57.0400 0.9844 1.0000
57.0500 3.9934 1.0000
57.0600 1.9935 1.0000
57.0700 3.9791 1.0000
57.0800 0.0000 1.0000
57.0900 0.9912 1.0000
57.1000 0.9957 1.0000
57.1100 0.9873 1.0000
57.1200 2.9953 1.0000
57.1300 2.0037 1.0000
57.1400 0.9835 1.0000
57.1500 6.0067 1.0000
57.1600 2.0116 1.0000
57.1700 3.9871 1.0000
57.1800 0.9989 1.0000
57.1900 0.9918 1.0000
57.2000 3.0084 1.0000
57.2100 0.9711 1.0000
57.2200 3.9870 1.0000
57.2300 2.9602 1.0000
57.2400 0.0000 1.0000
57.2500 2.9966 1.0000
57.2600 1.9760 1.0000
57.2700 2.9967 1.0000
57.2800 1.0049 1.0000
57.2900 2.0169 1.0000
57.3000 1.9833 1.0000
57.3100 1.9683 1.0000
57.3200 1.9884 1.0000
57.3300 2.9770 1.0000
57.3400 1.9856 1.0000
57.3500 2.9741 1.0000
57.3600 0.0000 1.0000
57.3700 2.9819 1.0000
57.3800 1.9869 1.0000
57.3900 3.0383 1.0000
57.4000 5.9858 1.0000
57.4100 2.9846 1.0000
57.4200 2.0174 1.0000
57.4300 3.0286 1.0000
57.4400 2.9942 1.0000
57.4500 0.0000 1.0000
57.4600 3.9534 1.0000
57.4700 2.9613 1.0000
57.4800 2.9830 1.0000
57.4900 2.0098 1.0000
57.5000 4.0123 1.0000
57.5100 0.9995 1.0000
57.5200 1.9792 1.0000
57.5300 0.9938 1.0000
57.5400 0.9870 1.0000
57.5500 3.0060 1.0000
57.5600 3.9856 1.0000
57.5700 1.9733 1.0000
57.5800 0.9682 1.0000
57.5900 0.9984 1.0000
57.6000 3.9761 1.0000
57.6100 0.0000 1.0000
57.6200 1.9776 1.0000
57.6300 1.9708 1.0000
57.6400 1.9604 1.0000
57.6500 1.0032 1.0000
57.6600 0.9940 1.0000
57.6700 0.9940 1.0000
57.6800 0.9835 1.0000
57.6900 2.0362 1.0000
57.7000 0.9774 1.0000
57.7100 1.9844 1.0000
57.7200 0.0000 1.0000
57.7300 2.9835 1.0000
57.7400 4.0196 1.0000
57.7500 3.9617 1.0000
57.7600 2.9356 1.0000
57.7700 1.9839 1.0000
57.7800 1.0101 1.0000
57.7900 1.9691 1.0000
57.8000 0.9789 1.0000
57.8100 1.9711 1.0000
57.8200 2.9624 1.0000
57.8300 0.0000 1.0000
57.8400 2.9994 1.0000
57.8500 1.0115 1.0000
57.8600 2.0480 1.0000
57.8700 0.0000 1.0000
57.8800 1.9700 1.0000
57.8900 0.0000 1.0000
57.9000 0.9800 1.0000
57.9100 0.9916 1.0000
57.9200 0.9778 1.0000
57.9300 0.9781 1.0000
57.9400 1.9970 1.0000
57.9500 3.9732 1.0000
57.9600 1.9962 1.0000
57.9700 0.9958 1.0000
57.9800 1.9985 1.0000
57.9900 4.9661 1.0000
58.0000 0.0000 1.0000
58.0100 0.9837 1.0000
58.0200 0.9703 1.0000
58.0300 0.9919 1.0000
58.0400 4.9783 1.0000
58.0500 0.9755 1.0000
58.0600 1.9800 1.0000
58.0700 2.9727 1.0000
58.0800 5.0099 1.0000
58.0900 4.0281 1.0000
58.1000 2.9844 1.0000
58.1100 2.9828 1.0000
58.1200 2.0120 1.0000
58.1300 0.9766 1.0000
58.1400 2.9432 1.0000
58.1500 2.9910 1.0000
58.1600 0.0000 1.0000
58.1700 1.0049 1.0000
58.1800 0.0000 1.0000
58.1900 0.0000 1.0000
58.2000 0.9831 1.0000
58.2100 2.0174 1.0000
58.2200 1.9678 1.0000
58.2300 1.9795 1.0000
58.2400 1.9680 1.0000
58.2500 3.0090 1.0000
58.2600 1.9829 1.0000
58.2700 2.9697 1.0000
58.2800 2.9802 1.0000
58.2900 0.9892 1.0000
58.3000 2.9921 1.0000
58.3100 0.9841 1.0000
58.3200 3.0472 1.0000
58.3300 5.0026 1.0000
58.3400 2.9297 1.0000
58.3500 2.9639 1.0000
58.3600 0.9970 1.0000
58.3700 1.0045 1.0000
58.3800 1.9664 1.0000
58.3900 1.0101 1.0000
58.4000 0.0000 1.0000
58.4100 0.0000 1.0000
58.4200 1.0250 1.0000
58.4300 1.0018 1.0000
58.4400 1.9833 1.0000
58.4500 0.9839 1.0000
58.4600 1.0085 1.0000
58.4700 3.9529 1.0000
58.4800 2.9618 1.0000
58.4900 0.9969 1.0000
58.5000 5.9722 1.0000
58.5100 1.9547 1.0000
58.5200 0.9894 1.0000
58.5300 1.9935 1.0000
58.5400 0.9863 1.0000
58.5500 1.0286 1.0000
58.5600 1.9974 1.0000
58.5700 4.0076 1.0000
58.5800 3.0407 1.0000
58.5900 1.9999 1.0000
58.6000 1.9830 1.0000
58.6100 1.9994 1.0000
58.6200 3.1595 1.0000
58.6300 2.1346 1.0000
58.6400 0.9990 1.0000
58.6500 1.9999 1.0000
58.6600 1.0007 1.0000
58.6700 3.9950 1.0000
58.6800 2.9840 1.0000
58.6900 3.9731 1.0000
58.7000 1.9841 1.0000
58.7100 0.0000 1.0000
58.7200 2.9988 1.0000
58.7300 1.9602 1.0000
58.7400 4.0061 1.0000
58.7500 1.9708 1.0000
58.7600 0.0000 1.0000
58.7700 1.9897 1.0000
58.7800 3.0102 1.0000
58.7900 1.9860 1.0000
58.8000 1.0190 1.0000
58.8100 1.9831 1.0000
58.8200 3.0176 1.0000
58.8300 2.9871 1.0000
58.8400 0.9861 1.0000
58.8500 2.0058 1.0000
58.8600 1.9881 1.0000
58.8700 3.9331 1.0000
58.8800 2.0148 1.0000
58.8900 2.9495 1.0000
58.9000 4.9713 1.0000
58.9100 2.9498 1.0000
58.9200 2.9972 1.0000
58.9300 0.9862 1.0000
58.9400 0.0000 1.0000
58.9500 3.9580 1.0000
58.9600 1.0178 1.0000
58.9700 0.9834 1.0000
58.9800 3.9857 1.0000
58.9900 2.9740 1.0000
59.0000 1.0094 1.0000
59.0100 0.9924 1.0000
59.0200 0.0000 1.0000
59.0300 0.0000 1.0000
59.0400 2.9727 1.0000
59.0500 1.9967 1.0000
59.0600 0.9907 1.0000
59.0700 0.0000 1.0000
59.0800 0.0000 1.0000
59.0900 1.0075 1.0000
59.1000 1.9940 1.0000
59.1100 1.0194 1.0000
59.1200 6.0450 1.0000
59.1300 0.0000 1.0000
59.1400 0.9703 1.0000
59.1500 0.9966 1.0000
59.1600 1.0038 1.0000
59.1700 0.0000 1.0000
59.1800 2.9781 1.0000
59.1900 2.0023 1.0000
59.2000 1.9688 1.0000
59.2100 3.9705 1.0000
59.2200 1.9815 1.0000
59.2300 2.9987 1.0000
59.2400 0.9878 1.0000
59.2500 0.9814 1.0000
59.2600 2.9955 1.0000
59.2700 4.9656 1.0000
59.2800 3.9330 1.0000
59.2900 0.0000 1.0000
59.3000 1.9682 1.0000
59.3100 0.0000 1.0000
59.3200 2.9924 1.0000
59.3300 2.0025 1.0000
59.3400 3.0234 1.0000
59.3500 3.0229 1.0000
59.3600 3.9890 1.0000
59.3700 2.9900 1.0000
59.3800 1.9889 1.0000
59.3900 0.0000 1.0000
59.4000 0.0000 1.0000
59.4100 2.9437 1.0000
59.4200 2.9960 1.0000
59.4300 3.9585 1.0000
59.4400 2.9805 1.0000
59.4500 4.9802 1.0000
59.4600 2.0035 1.0000
59.4700 1.9698 1.0000
59.4800 3.9920 1.0000
59.4900 2.9616 1.0000
59.5000 1.0057 1.0000
59.5100 3.0539 1.0000
59.5200 1.9931 1.0000
59.5300 4.9502 1.0000
59.5400 0.0000 1.0000
59.5500 1.9849 1.0000
59.5600 0.0000 1.0000
59.5700 3.9569 1.0000
59.5800 3.0104 1.0000
59.5900 0.9935 1.0000
59.6000 2.0104 1.0000
59.6100 2.0110 1.0000
59.6200 3.0293 1.0000
59.6300 1.0286 1.0000
59.6400 1.9661 1.0000
59.6500 1.9692 1.0000
59.6600 3.0071 1.0000
59.6700 0.9765 1.0000
59.6800 0.9929 1.0000
59.6900 3.0354 1.0000
59.7000 3.0019 1.0000
59.7100 3.9833 1.0000
59.7200 1.9609 1.0000
59.7300 2.9817 1.0000
59.7400 2.0002 1.0000
59.7500 3.9591 1.0000
59.7600 1.0101 1.0000
59.7700 4.9632 1.0000
59.7800 0.9853 1.0000
59.7900 0.0000 1.0000
59.8000 1.9986 1.0000
59.8100 1.0100 1.0000
59.8200 1.0009 1.0000
59.8300 0.0000 1.0000
59.8400 0.9853 1.0000
59.8500 1.9651 1.0000
59.8600 4.9578 1.0000
59.8700 1.9999 1.0000
59.8800 1.0171 1.0000
59.8900 0.9794 1.0000
59.9000 0.9889 1.0000
59.9100 4.9678 1.0000
59.9200 2.9941 1.0000
59.9300 0.9929 1.0000
59.9400 1.9456 1.0000
59.9500 0.9658 1.0000
59.9600 3.9187 1.0000
59.9700 1.0049 1.0000
59.9800 2.0145 1.0000
59.9900 1.9696 1.0000
60.0000 3.9850 1.0000
60.0100 3.9865 1.0000
60.0200 3.0243 1.0000
60.0300 1.9893 1.0000
60.0400 0.9960 1.0000
60.0500 2.9709 1.0000
60.0600 2.0242 1.0000
60.0700 4.9363 1.0000
60.0800 2.9712 1.0000
60.0900 0.0000 1.0000
60.1000 1.9684 1.0000
60.1100 0.9912 1.0000
60.1200 0.9804 1.0000
60.1300 1.9883 1.0000
60.1400 0.9736 1.0000
60.1500 1.9797 1.0000
60.1600 1.9945 1.0000
60.1700 2.9932 1.0000
60.1800 2.9241 1.0000
60.1900 2.9556 1.0000
60.2000 0.9953 1.0000
60.2100 0.9923 1.0000
60.2200 3.0152 1.0000
60.2300 0.0000 1.0000
60.2400 0.0000 1.0000
60.2500 1.9773 1.0000
60.2600 2.9639 1.0000
60.2700 2.9790 1.0000
60.2800 1.0048 1.0000
60.2900 2.9811 1.0000
60.3000 4.0098 1.0000
60.3100 2.9754 1.0000
60.3200 0.0000 1.0000
60.3300 1.0054 1.0000
60.3400 2.0126 1.0000
60.3500 1.0020 1.0000
60.3600 2.9736 1.0000
60.3700 4.9740 1.0000
60.3800 1.9880 1.0000
60.3900 3.9842 1.0000
60.4000 3.9733 1.0000
60.4100 1.9936 1.0000
60.4200 1.9994 1.0000
60.4300 1.0277 1.0000
60.4400 3.9346 1.0000
60.4500 2.0140 1.0000
60.4600 2.0048 1.0000
60.4700 1.0105 1.0000
60.4800 2.9796 1.0000
60.4900 5.9186 1.0000
60.5000 2.1290 1.0000
60.5100 2.9989 1.0000
60.5200 4.0026 1.0000
60.5300 0.9980 1.0000
60.5400 2.9809 1.0000
60.5500 1.0019 1.0000
60.5600 0.9849 1.0000
60.5700 2.9843 1.0000
60.5800 3.0186 1.0000
60.5900 3.0073 1.0000
60.6000 1.9998 1.0000
60.6100 1.9868 1.0000
60.6200 1.0277 1.0000
60.6300 1.9938 1.0000
60.6400 0.9978 1.0000
60.6500 3.9771 1.0000
60.6600 2.9974 1.0000
60.6700 2.9872 1.0000
60.6800 3.9840 1.0000
60.6900 3.9592 1.0000
60.7000 2.0111 1.0000
60.7100 1.0009 1.0000
60.7200 4.9408 1.0000
60.7300 1.9766 1.0000
60.7400 0.0000 1.0000
60.7500 1.9987 1.0000
60.7600 0.0000 1.0000
60.7700 0.9891 1.0000
60.7800 4.0491 1.0000
60.7900 1.9851 1.0000
60.8000 2.0087 1.0000
60.8100 1.9901 1.0000
60.8200 2.9937 1.0000
60.8300 4.2580 1.0000
60.8400 2.9717 1.0000
60.8500 0.9865 1.0000
60.8600 3.0239 1.0000
60.8700 4.9509 1.0000
60.8800 4.9896 1.0000
60.8900 1.0092 1.0000
60.9000 0.0000 1.0000
60.9100 1.9799 1.0000
60.9200 7.0016 1.0000
60.9300 0.9993 1.0000
60.9400 1.9710 1.0000
60.9500 1.9812 1.0000
60.9600 1.9854 1.0000
60.9700 1.0166 1.0000
60.9800 2.9925 1.0000
60.9900 6.9707 1.0000
61.0000 0.0000 1.0000
61.0100 0.0000 1.0000
61.0200 0.0000 1.0000
61.0300 1.0178 1.0000
61.0400 2.9851 1.0000
61.0500 3.9913 1.0000
61.0600 1.0226 1.0000
61.0700 6.9168 1.0000
61.0800 0.0000 1.0000
61.0900 1.9788 1.0000
61.1000 1.9880 1.0000
61.1100 11.9207 1.0000
61.1200 1.9827 1.0000
61.1300 4.9336 1.0000
61.1400 1.9800 1.0000
61.1500 0.9934 1.0000
61.1600 4.0039 1.0000
61.1700 1.9591 1.0000
61.1800 4.0310 1.0000
61.1900 0.9794 1.0000
61.2000 0.0000 1.0000
61.2100 0.9878 1.0000
61.2200 0.0000 1.0000
61.2300 3.9912 1.0000
61.2400 2.9983 1.0000
61.2500 2.9541 1.0000
61.2600 1.9883 1.0000
61.2700 1.9903 1.0000
61.2800 0.9976 1.0000
61.2900 2.3264 1.0000
61.3000 2.9956 1.0000
61.3100 0.1692 1.0000
61.3200 1.9775 1.0000
61.3300 1.9806 1.0000
61.3400 1.9693 1.0000
61.3500 2.9519 1.0000
61.3600 1.0019 1.0000
61.3700 2.9937 1.0000
61.3800 0.0000 1.0000
61.3900 2.9995 1.0000
61.4000 2.9990 1.0000
61.4100 1.9719 1.0000
61.4200 1.9907 1.0000
61.4300 1.9654 1.0000
61.4400 4.0242 1.0000
61.4500 1.9795 1.0000
61.4600 1.9960 1.0000
61.4700 1.0019 1.0000
61.4800 1.0156 1.0000
61.4900 0.9854 1.0000
61.5000 1.9714 1.0000
61.5100 3.0316 1.0000
61.5200 1.9995 1.0000
61.5300 3.0192 1.0000
61.5400 2.0110 1.0000
61.5500 2.9699 1.0000
61.5600 1.9967 1.0000
61.5700 3.0282 1.0000
61.5800 0.0000 1.0000
61.5900 3.9769 1.0000
61.6000 1.0001 1.0000
61.6100 3.9942 1.0000
61.6200 3.0172 1.0000
61.6300 0.0000 1.0000
61.6400 3.9973 1.0000
61.6500 4.9433 1.0000
61.6600 0.0000 1.0000
61.6700 2.9593 1.0000
61.6800 0.9997 1.0000
61.6900 2.0156 1.0000
61.7000 3.0145 1.0000
61.7100 1.0011 1.0000
61.7200 2.9971 1.0000
61.7300 1.0049 1.0000
61.7400 2.9843 1.0000
61.7500 1.9934 1.0000
61.7600 0.0000 1.0000
61.7700 1.9815 1.0000
61.7800 0.9887 1.0000
61.7900 2.9657 1.0000
61.8000 1.0190 1.0000
61.8100 1.0050 1.0000
61.8200 1.9936 1.0000
61.8300 0.9878 1.0000
61.8400 3.0301 1.0000
61.8500 4.9721 1.0000
61.8600 2.0044 1.0000
61.8700 1.0033 1.0000
61.8800 5.9495 1.0000
61.8900 2.0146 1.0000
61.9000 2.0226 1.0000
61.9100 2.9992 1.0000
61.9200 3.9473 1.0000
61.9300 4.9720 1.0000
61.9400 0.9807 1.0000
61.9500 1.9517 1.0000
61.9600 1.0148 1.0000
61.9700 0.0000 1.0000
61.9800 3.9737 1.0000
61.9900 0.0000 1.0000
62.0000 0.0000 1.0000
62.0100 2.9940 1.0000
62.0200 2.9727 1.0000
62.0300 1.9763 1.0000
62.0400 2.3278 1.0000
62.0500 0.0000 1.0000
62.0600 1.0294 1.0000
62.0700 2.9628 1.0000
62.0800 1.9810 1.0000
62.0900 2.9967 1.0000
62.1000 0.0000 1.0000
62.1100 1.0084 1.0000
62.1200 1.9864 1.0000
62.1300 4.9999 1.0000
62.1400 1.9751 1.0000
62.1500 0.9835 1.0000
62.1600 1.9698 1.0000
62.1700 3.9991 1.0000
62.1800 0.9794 1.0000
62.1900 2.9928 1.0000
62.2000 4.9411 1.0000
62.2100 1.9704 1.0000
62.2200 5.9147 1.0000
62.2300 2.9712 1.0000
62.2400 1.0134 1.0000
62.2500 4.0140 1.0000
62.2600 7.9846 1.0000
62.2700 0.9984 1.0000
62.2800 0.9938 1.0000
62.2900 2.9606 1.0000
62.3000 3.9665 1.0000
62.3100 2.0156 1.0000
62.3200 2.9810 1.0000
62.3300 3.0334 1.0000
62.3400 1.9763 1.0000
62.3500 1.0045 1.0000
62.3600 2.9801 1.0000
62.3700 1.9614 1.0000
62.3800 1.9741 1.0000
62.3900 5.9482 1.0000
62.4000 4.1671 1.0000
62.4100 0.9972 1.0000
62.4200 1.0149 1.0000
62.4300 0.9933 1.0000
62.4400 1.9637 1.0000
62.4500 1.9902 1.0000
62.4600 5.9978 1.0000
62.4700 0.9875 1.0000
62.4800 2.9530 1.0000
62.4900 3.9610 1.0000
62.5000 1.0102 1.0000
62.5100 1.9949 1.0000
62.5200 2.0405 1.0000
62.5300 2.0038 1.0000
62.5400 2.9876 1.0000
62.5500 3.0078 1.0000
62.5600 2.0082 1.0000
62.5700 2.9565 1.0000
62.5800 5.0312 1.0000
62.5900 1.9677 1.0000
62.6000 3.0116 1.0000
62.6100 0.9918 1.0000
62.6200 1.9630 1.0000
62.6300 3.9711 1.0000
62.6400 1.9582 1.0000
62.6500 3.0422 1.0000
62.6600 2.0094 1.0000
62.6700 1.9820 1.0000
62.6800 4.0172 1.0000
62.6900 8.9419 1.0000
62.7000 5.0354 1.0000
62.7100 2.0002 1.0000
62.7200 4.0149 1.0000
62.7300 3.9346 1.0000
62.7400 1.9906 1.0000
62.7500 5.9589 1.0000
62.7600 3.0009 1.0000
62.7700 2.9596 1.0000
62.7800 3.0060 1.0000
62.7900 2.9644 1.0000
62.8000 2.9889 1.0000
62.8100 1.9768 1.0000
62.8200 6.9816 1.0000
62.8300 0.0000 1.0000
62.8400 3.9964 1.0000
62.8500 1.9711 1.0000
62.8600 1.9719 1.0000
62.8700 1.0162 1.0000
62.8800 4.0097 1.0000
62.8900 1.0015 1.0000
62.9000 3.0427 1.0000
62.9100 1.0081 1.0000
62.9200 2.0027 1.0000
62.9300 6.0243 1.0000
62.9400 0.9691 1.0000
62.9500 0.9840 1.0000
62.9600 2.9734 1.0000
62.9700 4.9803 1.0000
62.9800 3.0286 1.0000
62.9900 4.9931 1.0000
63.0000 3.9870 1.0000
63.0100 1.9665 1.0000
63.0200 3.0007 1.0000
63.0300 0.9686 1.0000
63.0400 3.9393 1.0000
63.0500 3.9857 1.0000
63.0600 1.0010 1.0000
63.0700 7.0004 1.0000
63.0800 1.9993 1.0000
63.0900 0.9985 1.0000
63.1000 3.9681 1.0000
63.1100 1.9753 1.0000
63.1200 3.9679 1.0000
63.1300 5.9451 1.0000
63.1400 3.9969 1.0000
63.1500 2.9729 1.0000
63.1600 4.9575 1.0000
63.1700 2.9736 1.0000
63.1800 2.0043 1.0000
63.1900 7.0094 1.0000
63.2000 3.0039 1.0000
63.2100 2.9807 1.0000
63.2200 1.9961 1.0000
63.2300 0.9989 1.0000
63.2400 2.9670 1.0000
63.2500 2.9638 1.0000
63.2600 0.9918 1.0000
63.2700 4.9939 1.0000
63.2800 3.0137 1.0000
63.2900 2.9077 1.0000
63.3000 3.9816 1.0000
63.3100 0.9893 1.0000
63.3200 0.9629 1.0000
63.3300 0.9899 1.0000
63.3400 4.9840 1.0000
63.3500 2.0063 1.0000
63.3600 3.9842 1.0000
63.3700 1.9791 1.0000
63.3800 3.0055 1.0000
63.3900 2.0050 1.0000
63.4000 3.0079 1.0000
63.4100 0.9865 1.0000
63.4200 1.9735 1.0000
63.4300 4.9817 1.0000
63.4400 0.9881 1.0000
63.4500 0.9861 1.0000
63.4600 2.9986 1.0000
63.4700 2.9894 1.0000
63.4800 4.9640 1.0000
63.4900 1.9954 1.0000
63.5000 1.9902 1.0000
63.5100 3.0155 1.0000
63.5200 0.9870 1.0000
63.5300 7.0602 1.0000
63.5400 2.9976 1.0000
63.5500 0.9894 1.0000
63.5600 5.9810 1.0000
63.5700 1.9656 1.0000
63.5800 5.9861 1.0000
63.5900 7.9160 1.0000
63.6000 1.9731 1.0000
63.6100 1.9634 1.0000
63.6200 3.9904 1.0000
63.6300 1.0016 1.0000
63.6400 2.9712 1.0000
63.6500 2.0055 1.0000
63.6600 6.0070 1.0000
63.6700 0.0000 1.0000
63.6800 2.9620 1.0000
63.6900 1.0072 1.0000
63.7000 2.9584 1.0000
63.7100 2.0446 1.0000
63.7200 7.0164 1.0000
63.7300 3.0014 1.0000
63.7400 2.9969 1.0000
63.7500 0.9890 1.0000
63.7600 2.9982 1.0000
63.7700 4.0752 1.0000
63.7800 0.9902 1.0000
63.7900 3.9398 1.0000
63.8000 0.9840 1.0000
63.8100 3.0032 1.0000
63.8200 2.9641 1.0000
63.8300 3.9836 1.0000
63.8400 3.9756 1.0000
63.8500 1.0015 1.0000
63.8600 2.0034 1.0000
63.8700 2.0024 1.0000
63.8800 4.9870 1.0000
63.8900 2.0030 1.0000
63.9000 3.9646 1.0000
63.9100 4.0106 1.0000
63.9200 3.9701 1.0000
63.9300 2.9854 1.0000
63.9400 6.9962 1.0000
63.9500 0.0000 1.0000
63.9600 1.9754 1.0000
63.9700 3.9346 1.0000
63.9800 2.9346 1.0000
63.9900 0.9929 1.0000
64.0000 3.9924 1.0000
64.0100 1.0058 1.0000
64.0200 0.9984 1.0000
64.0300 2.9593 1.0000
64.0400 3.0090 1.0000
64.0500 2.9937 1.0000
64.0600 2.9821 1.0000
64.0700 5.9977 1.0000
64.0800 0.9826 1.0000
64.0900 3.0058 1.0000
64.1000 4.9841 1.0000
64.1100 1.9691 1.0000
64.1200 3.9984 1.0000
64.1300 2.9865 1.0000
64.1400 1.0021 1.0000
64.1500 4.0250 1.0000
64.1600 0.0000 1.0000
64.1700 6.0081 1.0000
64.1800 4.9257 1.0000
64.1900 2.9945 1.0000
64.2000 3.0169 1.0000
64.2100 6.0011 1.0000
64.2200 0.9977 1.0000
64.2300 4.9713 1.0000
64.2400 6.9845 1.0000
64.2500 2.0183 1.0000
64.2600 5.0153 1.0000
64.2700 1.9893 1.0000
64.2800 0.9916 1.0000
64.2900 5.9887 1.0000
64.3000 2.9894 1.0000
64.3100 0.9965 1.0000
64.3200 3.2810 1.0000
64.3300 2.9766 1.0000
64.3400 3.9694 1.0000
64.3500 1.9783 1.0000
64.3600 5.9702 1.0000
64.3700 4.0100 1.0000
64.3800 6.0497 1.0000
64.3900 3.0119 1.0000
64.4000 3.0306 1.0000
64.4100 5.0183 1.0000
64.4200 2.9781 1.0000
64.4300 3.9719 1.0000
64.4400 5.9495 1.0000
64.4500 6.0287 1.0000
64.4600 6.9561 1.0000
64.4700 2.9861 1.0000
64.4800 2.9785 1.0000
64.4900 3.9434 1.0000
64.5000 2.0263 1.0000
64.5100 2.9799 1.0000
64.5200 8.0309 1.0000
64.5300 6.0481 1.0000
64.5400 0.9998 1.0000
64.5500 7.9654 1.0000
64.5600 4.9919 1.0000
64.5700 3.0155 1.0000
64.5800 4.0319 1.0000
64.5900 2.9760 1.0000
64.6000 8.0551 1.0000
64.6100 4.0154 1.0000
64.6200 4.9616 1.0000
64.6300 5.9677 1.0000
64.6400 1.9906 1.0000
64.6500 2.0009 1.0000
64.6600 1.0000 1.0000
64.6700 5.9949 1.0000
64.6800 2.9955 1.0000
64.6900 7.0150 1.0000
64.7000 3.9108 1.0000
64.7100 3.9610 1.0000
64.7200 4.0029 1.0000
64.7300 3.0334 1.0000
64.7400 4.0025 1.0000
64.7500 6.9526 1.0000
64.7600 2.9923 1.0000
64.7700 6.9212 1.0000
64.7800 9.2571 1.0000
64.7900 7.9304 1.0000
64.8000 3.0008 1.0000
64.8100 1.9968 1.0000
64.8200 10.1435 1.0000
64.8300 5.9822 1.0000
64.8400 4.9821 1.0000
64.8500 5.9734 1.0000
64.8600 7.9272 1.0000
64.8700 2.9779 1.0000
64.8800 0.9940 1.0000
64.8900 5.9390 1.0000
64.9000 2.9979 1.0000
64.9100 1.9786 1.0000
64.9200 3.9923 1.0000
64.9300 2.9858 1.0000
64.9400 1.9849 1.0000
64.9500 2.9591 1.0000
64.9600 4.0487 1.0000
64.9700 4.0206 1.0000
64.9800 7.9970 1.0000
64.9900 3.9925 1.0000
65.0000 2.0069 1.0000
65.0100 10.8766 1.0000
65.0200 5.0807 1.0000
65.0300 1.0048 1.0000
65.0400 5.0190 1.0000
65.0500 4.0096 1.0000
65.0600 6.0319 1.0000
65.0700 10.0193 1.0000
65.0800 4.0078 1.0000
65.0900 3.0179 1.0000
65.1000 5.9193 1.0000
65.1100 4.0031 1.0000
65.1200 8.9553 1.0000
65.1300 3.9974 1.0000
65.1400 5.0239 1.0000
65.1500 3.9865 1.0000
65.1600 4.0038 1.0000
65.1700 1.9891 1.0000
65.1800 3.9623 1.0000
65.1900 3.9959 1.0000
65.2000 3.0134 1.0000
65.2100 5.0046 1.0000
65.2200 1.9790 1.0000
65.2300 4.9244 1.0000
65.2400 6.9566 1.0000
65.2500 4.9431 1.0000
65.2600 6.0107 1.0000
65.2700 2.9609 1.0000
65.2800 5.0007 1.0000
65.2900 5.9925 1.0000
65.3000 4.9780 1.0000
65.3100 3.9443 1.0000
65.3200 3.9900 1.0000
65.3300 2.9664 1.0000
65.3400 7.9832 1.0000
65.3500 8.0381 1.0000
65.3600 4.9772 1.0000
65.3700 7.9665 1.0000
65.3800 5.9438 1.0000
65.3900 6.9980 1.0000
65.4000 10.0179 1.0000
65.4100 5.9525 1.0000
65.4200 5.9579 1.0000
65.4300 12.9196 1.0000
65.4400 7.9718 1.0000
65.4500 5.9259 1.0000
65.4600 6.0252 1.0000
65.4700 5.1156 1.0000
65.4800 12.9159 1.0000
65.4900 9.9248 1.0000
65.5000 5.9559 1.0000
65.5100 4.9371 1.0000
65.5200 12.2713 1.0000
65.5300 10.9119 1.0000
65.5400 6.9774 1.0000
65.5500 9.0997 1.0000
65.5600 9.9058 1.0000
65.5700 5.0209 1.0000
65.5800 11.9418 1.0000
65.5900 9.8768 1.0000
65.6000 14.9313 1.0000
65.6100 6.0196 1.0000
65.6200 15.9580 1.0000
65.6300 12.2044 1.0000
65.6400 11.9901 1.0000
65.6500 9.9702 1.0000
65.6600 16.0768 1.0000
65.6700 16.9931 1.0000
65.6800 7.9814 1.0000
65.6900 9.9582 1.0000
65.7000 14.8709 1.0000
65.7100 10.8587 1.0000
65.7200 12.9499 1.0000
65.7300 9.9263 1.0000
65.7400 8.0179 1.0000
65.7500 16.9606 1.0000
65.7600 13.9594 1.0000
65.7700 12.0343 1.0000
65.7800 15.9884 1.0000
65.7900 15.9950 1.0000
65.8000 18.9210 1.0000
65.8100 17.8846 1.0000
65.8200 16.9773 1.0000
65.8300 15.9046 1.0000
65.8400 11.0847 1.0000
65.8500 14.9425 1.0000
65.8600 25.8322 1.0000
65.8700 17.9177 1.0000
65.8800 17.8872 1.0000
65.8900 19.9545 1.0000
65.9000 29.8885 1.0000
65.9100 23.9044 1.0000
65.9200 23.8302 1.0000
65.9300 35.8179 1.0000
65.9400 35.8617 1.0000
65.9500 9.9965 1.0000
65.9600 18.8851 1.0000
65.9700 24.9756 1.0000
65.9800 13.9068 1.0000
65.9900 24.9375 1.0000
66.0000 30.0318 1.0000
66.0100 24.9047 1.0000
66.0200 16.0171 1.0000
66.0300 31.7793 1.0000
66.0400 33.7592 1.0000
66.0500 37.8984 1.0000
66.0600 42.9360 1.0000
66.0700 52.6933 1.0000
66.0800 40.8986 1.0000
66.0900 51.8125 1.0000
66.1000 53.9307 1.0000
66.1100 52.6576 1.0000
66.1200 48.6468 1.0000
66.1300 43.6956 1.0000
66.1400 63.5887 1.0000
66.1500 85.5321 1.0000
66.1600 113.6949 1.0000
66.1700 166.2072 1.0000
66.1800 265.9134 1.0000
66.1900 487.1076 1.0000
66.2000 840.4887 1.0000
66.2100 1214.5171 1.0000
66.2200 1481.0710 1.0000
66.2300 1789.4611 1.0000
66.2400 2070.2100 1.0000
66.2500 2783.0540 1.0000
66.2600 2818.8535 1.0000
66.2700 1965.3918 1.0000
66.2800 1409.6521 1.0000
66.2900 910.6210 1.0000
66.3000 535.6694 1.0000
66.3100 449.5954 1.0000
66.3200 470.7684 1.0000
66.3300 507.7840 1.0000
66.3400 520.2668 1.0000
66.3500 437.3140 1.0000
66.3600 396.6922 1.0000
66.3700 220.4313 1.0000
66.3800 117.5042 1.0000
66.3900 77.8508 1.0000
66.4000 58.8377 1.0000
66.4100 40.8594 1.0000
66.4200 30.9344 1.0000
66.4300 30.8941 1.0000
66.4400 19.9395 1.0000
66.4500 26.9460 1.0000
66.4600 25.0099 1.0000
66.4700 23.8470 1.0000
66.4800 15.0404 1.0000
66.4900 20.1002 1.0000
66.5000 24.0228 1.0000
66.5100 19.8535 1.0000
66.5200 23.0262 1.0000
66.5300 17.0173 1.0000
66.5400 18.0674 1.0000
66.5500 18.8510 1.0000
66.5600 21.8622 1.0000
66.5700 21.9857 1.0000
66.5800 11.9190 1.0000
66.5900 12.9361 1.0000
66.6000 14.9257 1.0000
66.6100 15.8958 1.0000
66.6200 9.8563 1.0000
66.6300 3.9142 1.0000
66.6400 10.0020 1.0000
66.6500 9.8816 1.0000
66.6600 17.1238 1.0000
66.6700 8.0457 1.0000
66.6800 16.0172 1.0000
66.6900 13.9527 1.0000
66.7000 4.9759 1.0000
66.7100 6.9362 1.0000
66.7200 9.0010 1.0000
66.7300 13.9695 1.0000
66.7400 9.9970 1.0000
66.7500 11.0096 1.0000
66.7600 4.0064 1.0000
66.7700 10.9587 1.0000
66.7800 9.9835 1.0000
66.7900 11.9056 1.0000
66.8000 11.8907 1.0000
66.8100 7.0362 1.0000
66.8200 8.3662 1.0000
66.8300 5.0120 1.0000
66.8400 10.9890 1.0000
66.8500 8.9907 1.0000
66.8600 8.9731 1.0000
66.8700 9.9771 1.0000
66.8800 8.9209 1.0000
66.8900 11.9612 1.0000
66.9000 5.9865 1.0000
66.9100 8.9155 1.0000
66.9200 10.9748 1.0000
66.9300 7.0253 1.0000
66.9400 13.0492 1.0000
66.9500 5.9583 1.0000
66.9600 8.9873 1.0000
66.9700 7.9867 1.0000
66.9800 8.0419 1.0000
66.9900 7.9633 1.0000
67.0000 6.0368 1.0000
67.0100 4.9522 1.0000
67.0200 6.9798 1.0000
67.0300 6.9790 1.0000
67.0400 8.9685 1.0000
67.0500 10.0240 1.0000
67.0600 13.9032 1.0000
67.0700 8.9565 1.0000
67.0800 8.9841 1.0000
67.0900 4.9678 1.0000
67.1000 3.9904 1.0000
67.1100 6.9680 1.0000
67.1200 8.0020 1.0000
67.1300 5.9206 1.0000
67.1400 11.0163 1.0000
67.1500 5.9267 1.0000
67.1600 9.0082 1.0000
67.1700 5.9510 1.0000
67.1800 6.9938 1.0000
67.1900 4.9910 1.0000
67.2000 5.9355 1.0000
67.2100 7.9963 1.0000
67.2200 9.0084 1.0000
67.2300 3.9874 1.0000
67.2400 7.9864 1.0000
67.2500 6.9119 1.0000
67.2600 10.9976 1.0000
67.2700 8.9231 1.0000
67.2800 5.9951 1.0000
67.2900 2.9049 1.0000
67.3000 1.0149 1.0000
67.3100 1.9710 1.0000
67.3200 2.9765 1.0000
67.3300 6.9081 1.0000
67.3400 7.9542 1.0000
67.3500 7.9193 1.0000
67.3600 3.0273 1.0000
67.3700 6.9566 1.0000
67.3800 6.9668 1.0000
67.3900 4.9882 1.0000
67.4000 3.9510 1.0000
67.4100 1.9703 1.0000
67.4200 6.0004 1.0000
67.4300 6.0146 1.0000
67.4400 5.0024 1.0000
67.4500 6.0057 1.0000
67.4600 0.9921 1.0000
67.4700 0.9946 1.0000
67.4800 3.9811 1.0000
67.4900 4.9878 1.0000
67.5000 5.9798 1.0000
67.5100 4.9728 1.0000
67.5200 4.0105 1.0000
67.5300 2.9838 1.0000
67.5400 8.9770 1.0000
67.5500 2.9929 1.0000
67.5600 9.8896 1.0000
67.5700 2.9197 1.0000
67.5800 5.1143 1.0000
67.5900 9.9637 1.0000
67.6000 9.0490 1.0000
67.6100 11.2158 1.0000
67.6200 3.9905 1.0000
67.6300 9.1218 1.0000
67.6400 3.9914 1.0000
67.6500 8.9075 1.0000
67.6600 6.9482 1.0000
67.6700 3.9467 1.0000
67.6800 2.9680 1.0000
67.6900 6.9691 1.0000
67.7000 2.9947 1.0000
67.7100 6.9747 1.0000
67.7200 7.0240 1.0000
67.7300 10.9698 1.0000
67.7400 6.0003 1.0000
67.7500 7.0369 1.0000
67.7600 4.9709 1.0000
67.7700 1.0199 1.0000
67.7800 3.9811 1.0000
67.7900 5.9505 1.0000
67.8000 5.9786 1.0000
67.8100 2.0218 1.0000
67.8200 6.9676 1.0000
67.8300 5.9554 1.0000
67.8400 1.9757 1.0000
67.8500 4.9904 1.0000
67.8600 4.9440 1.0000
67.8700 2.9993 1.0000
67.8800 6.9671 1.0000
67.8900 6.0233 1.0000
67.9000 3.9217 1.0000
67.9100 6.9234 1.0000
67.9200 7.9184 1.0000
67.9300 3.9860 1.0000
67.9400 6.9807 1.0000
67.9500 5.9958 1.0000
67.9600 3.8892 1.0000
67.9700 4.9405 1.0000
67.9800 4.0046 1.0000
67.9900 5.9624 1.0000
68.0000 2.1465 1.0000
68.0100 5.9789 1.0000
68.0200 4.0380 1.0000
68.0300 1.0032 1.0000
68.0400 8.0222 1.0000
68.0500 3.9732 1.0000
68.0600 7.9764 1.0000
68.0700 3.9959 1.0000
68.0800 2.9199 1.0000
68.0900 3.1451 1.0000
68.1000 5.9701 1.0000
68.1100 4.9094 1.0000
68.1200 3.9869 1.0000
68.1300 0.0000 1.0000
68.1400 2.9869 1.0000
68.1500 7.9392 1.0000
68.1600 6.9598 1.0000
68.1700 4.9632 1.0000
68.1800 3.0209 1.0000
68.1900 2.9882 1.0000
68.2000 4.9425 1.0000
68.2100 4.9538 1.0000
68.2200 3.9698 1.0000
68.2300 5.9901 1.0000
68.2400 3.9039 1.0000
68.2500 6.9548 1.0000
68.2600 5.9490 1.0000
68.2700 3.0008 1.0000
68.2800 3.9576 1.0000
68.2900 0.9854 1.0000
68.3000 2.9314 1.0000
68.3100 3.9886 1.0000
68.3200 5.9552 1.0000
68.3300 4.1360 1.0000
68.3400 3.9806 1.0000
68.3500 4.9717 1.0000
68.3600 2.9930 1.0000
68.3700 7.8925 1.0000
68.3800 6.9723 1.0000
68.3900 0.0000 1.0000
68.4000 2.9766 1.0000
68.4100 3.9865 1.0000
68.4200 3.9459 1.0000
68.4300 1.9746 1.0000
68.4400 2.9685 1.0000
68.4500 5.9789 1.0000
68.4600 1.9696 1.0000
68.4700 3.9566 1.0000
68.4800 5.2461 1.0000
68.4900 5.0132 1.0000
68.5000 1.9602 1.0000
68.5100 3.9894 1.0000
68.5200 2.9517 1.0000
68.5300 0.0000 1.0000
68.5400 0.9926 1.0000
68.5500 3.9675 1.0000
68.5600 2.9864 1.0000
68.5700 3.0096 1.0000
68.5800 5.9129 1.0000
68.5900 8.0303 1.0000
68.6000 4.0124 1.0000
68.6100 5.0132 1.0000
68.6200 4.9726 1.0000
68.6300 1.9809 1.0000
68.6400 4.0264 1.0000
68.6500 1.9743 1.0000
68.6600 4.0508 1.0000
68.6700 7.9711 1.0000
68.6800 2.9830 1.0000
68.6900 1.0059 1.0000
68.7000 2.9446 1.0000
68.7100 6.0068 1.0000
68.7200 1.9887 1.0000
68.7300 6.9589 1.0000
68.7400 3.9766 1.0000
68.7500 2.9880 1.0000
68.7600 5.9903 1.0000
68.7700 1.9945 1.0000
68.7800 0.9803 1.0000
68.7900 1.0101 1.0000
68.8000 1.0039 1.0000
68.8100 5.0259 1.0000
68.8200 4.9744 1.0000
68.8300 2.9921 1.0000
68.8400 3.9957 1.0000
68.8500 2.0062 1.0000
68.8600 5.2844 1.0000
68.8700 3.9903 1.0000
68.8800 4.9955 1.0000
68.8900 0.0000 1.0000
68.9000 1.9984 1.0000
68.9100 0.0000 1.0000
68.9200 3.9494 1.0000
68.9300 3.0086 1.0000
68.9400 4.9529 1.0000
68.9500 2.9582 1.0000
68.9600 5.2798 1.0000
68.9700 3.9901 1.0000
68.9800 4.9302 1.0000
68.9900 1.9989 1.0000
69.0000 6.0268 1.0000
69.0100 0.0000 1.0000
69.0200 1.9752 1.0000
69.0300 5.9233 1.0000
69.0400 1.9911 1.0000
69.0500 5.0102 1.0000
69.0600 2.9630 1.0000
69.0700 1.0059 1.0000
69.0800 3.0069 1.0000
69.0900 0.9878 1.0000
69.1000 5.0102 1.0000
69.1100 0.0000 1.0000
69.1200 5.9803 1.0000
69.1300 2.9882 1.0000
69.1400 5.9455 1.0000
69.1500 4.0105 1.0000
69.1600 3.0013 1.0000
69.1700 4.9517 1.0000
69.1800 2.9677 1.0000
69.1900 2.9702 1.0000
69.2000 3.9755 1.0000
69.2100 1.9689 1.0000
69.2200 2.9660 1.0000
69.2300 3.0107 1.0000
69.2400 4.0003 1.0000
69.2500 9.9602 1.0000
69.2600 2.9634 1.0000
69.2700 4.0049 1.0000
69.2800 0.0000 1.0000
69.2900 1.0106 1.0000
69.3000 4.9869 1.0000
69.3100 1.9771 1.0000
69.3200 4.9275 1.0000
69.3300 0.9805 1.0000
69.3400 5.9980 1.0000
69.3500 0.0000 1.0000
69.3600 2.9746 1.0000
69.3700 7.0516 1.0000
69.3800 2.9999 1.0000
69.3900 2.9864 1.0000
69.4000 5.9921 1.0000
69.4100 1.9944 1.0000
69.4200 1.9977 1.0000
69.4300 1.9960 1.0000
69.4400 0.9997 1.0000
69.4500 4.9963 1.0000
69.4600 1.9814 1.0000
69.4700 2.9778 1.0000
69.4800 3.9274 1.0000
69.4900 3.2670 1.0000
69.5000 2.9982 1.0000
69.5100 4.0105 1.0000
69.5200 4.9715 1.0000
69.5300 1.9967 1.0000
69.5400 3.0229 1.0000
69.5500 2.9942 1.0000
69.5600 2.0053 1.0000
69.5700 1.9825 1.0000
69.5800 3.9348 1.0000
69.5900 3.9858 1.0000
69.6000 1.9996 1.0000
69.6100 0.9978 1.0000
69.6200 2.9242 1.0000
69.6300 5.9390 1.0000
69.6400 1.9947 1.0000
69.6500 1.9693 1.0000
69.6600 2.0209 1.0000
69.6700 2.0103 1.0000
69.6800 4.1757 1.0000
69.6900 5.9203 1.0000
69.7000 2.9420 1.0000
69.7100 4.0068 1.0000
69.7200 3.9734 1.0000
69.7300 2.0000 1.0000
69.7400 2.9468 1.0000
69.7500 3.0043 1.0000
69.7600 5.0260 1.0000
69.7700 2.9878 1.0000
69.7800 1.9717 1.0000
69.7900 4.8873 1.0000
69.8000 0.9531 1.0000
69.8100 3.0421 1.0000
69.8200 5.0402 1.0000
69.8300 4.0021 1.0000
69.8400 2.9872 1.0000
69.8500 2.0024 1.0000
69.8600 5.9726 1.0000
69.8700 3.9705 1.0000
69.8800 1.9901 1.0000
69.8900 4.9952 1.0000
69.9000 3.0476 1.0000
69.9100 2.9640 1.0000
69.9200 0.0000 1.0000
69.9300 3.9843 1.0000
69.9400 5.0076 1.0000
69.9500 3.0101 1.0000
69.9600 3.9980 1.0000
69.9700 2.9546 1.0000
69.9800 4.9685 1.0000
69.9900 4.9588 1.0000
70.0000 3.9572 1.0000
70.0100 3.0032 1.0000
70.0200 9.9897 1.0000
70.0300 4.9644 1.0000
70.0400 1.0027 1.0000
70.0500 1.9900 1.0000
70.0600 1.0019 1.0000
70.0700 2.0256 1.0000
70.0800 4.9541 1.0000
70.0900 3.0041 1.0000
70.1000 0.9794 1.0000
70.1100 0.9756 1.0000
70.1200 1.0002 1.0000
70.1300 0.9983 1.0000
70.1400 3.9641 1.0000
70.1500 4.0154 1.0000
70.1600 0.9728 1.0000
70.1700 3.9907 1.0000
70.1800 4.9656 1.0000
70.1900 1.9773 1.0000
70.2000 2.9928 1.0000
70.2100 4.9516 1.0000
70.2200 2.9916 1.0000
70.2300 0.9990 1.0000
70.2400 6.0383 1.0000
70.2500 0.9997 1.0000
70.2600 4.9165 1.0000
70.2700 3.9859 1.0000
70.2800 6.9683 1.0000
70.2900 6.0626 1.0000
70.3000 5.0309 1.0000
70.3100 3.0248 1.0000
70.3200 0.9783 1.0000
70.3300 1.9873 1.0000
70.3400 2.0584 1.0000
70.3500 3.9860 1.0000
70.3600 0.9969 1.0000
70.3700 0.9875 1.0000
70.3800 0.0000 1.0000
70.3900 7.9379 1.0000
70.4000 2.0398 1.0000
70.4100 1.9937 1.0000
70.4200 2.0020 1.0000
70.4300 3.9900 1.0000
70.4400 1.9943 1.0000
70.4500 3.0365 1.0000
70.4600 0.9870 1.0000
70.4700 3.0098 1.0000
70.4800 4.0334 1.0000
70.4900 2.9943 1.0000
70.5000 0.0000 1.0000
70.5100 1.9892 1.0000
70.5200 1.1515 1.0000
70.5300 4.0184 1.0000
70.5400 1.9804 1.0000
70.5500 4.9470 1.0000
70.5600 1.9801 1.0000
70.5700 3.9870 1.0000
70.5800 0.9953 1.0000
70.5900 0.0000 1.0000
70.6000 1.9987 1.0000
70.6100 4.9683 1.0000
70.6200 1.9824 1.0000
70.6300 0.0000 1.0000
70.6400 1.9887 1.0000
70.6500 2.1670 1.0000
70.6600 4.9473 1.0000
70.6700 1.0142 1.0000
70.6800 1.9585 1.0000
70.6900 2.9877 1.0000
70.7000 2.9966 1.0000
70.7100 4.9861 1.0000
70.7200 2.0042 1.0000
70.7300 4.0237 1.0000
70.7400 4.9384 1.0000
70.7500 0.9807 1.0000
70.7600 2.9972 1.0000
70.7700 3.9653 1.0000
70.7800 3.9480 1.0000
70.7900 4.0384 1.0000
70.8000 5.0083 1.0000
70.8100 2.9901 1.0000
70.8200 1.9828 1.0000
70.8300 2.9885 1.0000
70.8400 1.9888 1.0000
70.8500 2.9810 1.0000
70.8600 4.9744 1.0000
70.8700 4.9374 1.0000
70.8800 4.9555 1.0000
70.8900 2.9969 1.0000
70.9000 3.0975 1.0000
70.9100 1.0101 1.0000
70.9200 1.9861 1.0000
70.9300 4.9992 1.0000
70.9400 4.0009 1.0000
70.9500 6.9870 1.0000
70.9600 0.0000 1.0000
70.9700 1.0250 1.0000
70.9800 6.0091 1.0000
70.9900 3.0048 1.0000
71.0000 6.9125 1.0000
71.0100 2.9868 1.0000
71.0200 1.9753 1.0000
71.0300 0.9756 1.0000
71.0400 2.0017 1.0000
71.0500 2.9879 1.0000
71.0600 2.9671 1.0000
71.0700 2.9789 1.0000
71.0800 0.0000 1.0000
71.0900 5.9580 1.0000
71.1000 2.0034 1.0000
71.1100 4.0044 1.0000
71.1200 1.9945 1.0000
71.1300 2.0378 1.0000
71.1400 2.9897 1.0000
71.1500 1.9682 1.0000
71.1600 0.0000 1.0000
71.1700 3.0173 1.0000
71.1800 4.9916 1.0000
71.1900 2.9759 1.0000
71.2000 4.9089 1.0000
71.2100 0.9914 1.0000
71.2200 3.9612 1.0000
71.2300 1.0159 1.0000
71.2400 1.9834 1.0000
71.2500 1.9768 1.0000
71.2600 2.9951 1.0000
71.2700 3.9175 1.0000
71.2800 0.9899 1.0000
71.2900 1.0063 1.0000
71.3000 0.9629 1.0000
71.3100 2.0007 1.0000
71.3200 2.0173 1.0000
71.3300 1.9897 1.0000
71.3400 2.9772 1.0000
71.3500 3.0344 1.0000
71.3600 4.0239 1.0000
71.3700 1.0054 1.0000
71.3800 0.0000 1.0000
71.3900 4.9414 1.0000
71.4000 0.9918 1.0000
71.4100 3.9478 1.0000
71.4200 0.9873 1.0000
71.4300 5.2880 1.0000
71.4400 1.0228 1.0000
71.4500 2.9735 1.0000
71.4600 4.2800 1.0000
71.4700 3.9687 1.0000
71.4800 2.9597 1.0000
71.4900 1.9846 1.0000
71.5000 5.9603 1.0000
71.5100 2.9571 1.0000
71.5200 3.9928 1.0000
71.5300 1.9868 1.0000
71.5400 3.9540 1.0000
71.5500 2.9705 1.0000
71.5600 2.0323 1.0000
71.5700 4.9518 1.0000
71.5800 0.0000 1.0000
71.5900 3.0094 1.0000
71.6000 3.9675 1.0000
71.6100 1.0356 1.0000
71.6200 1.9497 1.0000
71.6300 1.9981 1.0000
71.6400 5.0269 1.0000
71.6500 0.0000 1.0000
71.6600 4.9837 1.0000
71.6700 0.9953 1.0000
71.6800 1.9755 1.0000
71.6900 0.9977 1.0000
71.7000 0.0000 1.0000
71.7100 4.0038 1.0000
71.7200 3.0158 1.0000
71.7300 6.1188 1.0000
71.7400 1.9464 1.0000
71.7500 5.9588 1.0000
71.7600 4.0116 1.0000
71.7700 1.9914 1.0000
71.7800 4.0005 1.0000
71.7900 5.9370 1.0000
71.8000 0.9854 1.0000
71.8100 2.0065 1.0000
71.8200 1.9979 1.0000
71.8300 3.9570 1.0000
71.8400 0.0000 1.0000
71.8500 3.9814 1.0000
71.8600 6.0246 1.0000
71.8700 3.9666 1.0000
71.8800 0.0000 1.0000
71.8900 1.9758 1.0000
71.9000 0.9905 1.0000
71.9100 1.9991 1.0000
71.9200 3.9399 1.0000
71.9300 0.9892 1.0000
71.9400 0.9966 1.0000
71.9500 3.9869 1.0000
71.9600 0.9658 1.0000
71.9700 1.9992 1.0000
71.9800 1.9964 1.0000
71.9900 0.0000 1.0000
72.0000 3.9818 1.0000
72.0100 4.9642 1.0000
72.0200 0.9989 1.0000
72.0300 2.9527 1.0000
72.0400 2.0007 1.0000
72.0500 2.9966 1.0000
72.0600 3.0120 1.0000
72.0700 4.9922 1.0000
72.0800 1.9845 1.0000
72.0900 4.0043 1.0000
72.1000 1.0019 1.0000
72.1100 2.9672 1.0000
72.1200 0.9845 1.0000
72.1300 1.9951 1.0000
72.1400 3.9530 1.0000
72.1500 1.9888 1.0000
72.1600 2.0074 1.0000
72.1700 3.9975 1.0000
72.1800 2.9898 1.0000
72.1900 0.9807 1.0000
72.2000 0.9934 1.0000
72.2100 3.9666 1.0000
72.2200 1.9981 1.0000
72.2300 7.9727 1.0000
72.2400 1.9947 1.0000
72.2500 2.0149 1.0000
72.2600 1.9657 1.0000
72.2700 3.9589 1.0000
72.2800 3.9738 1.0000
72.2900 0.9958 1.0000
72.3000 2.9814 1.0000
72.3100 0.9875 1.0000
72.3200 3.9928 1.0000
72.3300 1.9910 1.0000
72.3400 0.9766 1.0000
72.3500 4.9201 1.0000
72.3600 0.9952 1.0000
72.3700 2.0066 1.0000
72.3800 1.9868 1.0000
72.3900 2.9750 1.0000
72.4000 2.9434 1.0000
72.4100 0.9890 1.0000
72.4200 4.9687 1.0000
72.4300 0.9934 1.0000
72.4400 2.9840 1.0000
72.4500 0.0000 1.0000
72.4600 3.9758 1.0000
72.4700 2.9890 1.0000
72.4800 1.9970 1.0000
72.4900 0.9691 1.0000
72.5000 2.9576 1.0000
72.5100 0.0000 1.0000
72.5200 1.0237 1.0000
72.5300 2.9562 1.0000
72.5400 3.9920 1.0000
72.5500 2.9966 1.0000
72.5600 3.9971 1.0000
72.5700 5.0008 1.0000
72.5800 3.9942 1.0000
72.5900 3.9747 1.0000
72.6000 2.9706 1.0000
72.6100 1.9931 1.0000
72.6200 1.9857 1.0000
72.6300 0.0000 1.0000
72.6400 2.9759 1.0000
72.6500 0.0000 1.0000
72.6600 3.0301 1.0000
72.6700 0.9979 1.0000
72.6800 1.9667 1.0000
72.6900 0.0000 1.0000
72.7000 3.0384 1.0000
72.7100 5.9382 1.0000
72.7200 0.9939 1.0000
72.7300 4.9690 1.0000
72.7400 2.0146 1.0000
72.7500 1.0250 1.0000
72.7600 0.9839 1.0000
72.7700 4.0241 1.0000
72.7800 2.9552 1.0000
72.7900 2.0148 1.0000
72.8000 0.0000 1.0000
72.8100 1.9928 1.0000
72.8200 2.0218 1.0000
72.8300 3.0339 1.0000
72.8400 3.9968 1.0000
72.8500 3.0055 1.0000
72.8600 0.0000 1.0000
72.8700 3.9647 1.0000
72.8800 2.0048 1.0000
72.8900 2.9915 1.0000
72.9000 6.9730 1.0000
72.9100 0.9873 1.0000
72.9200 3.8969 1.0000
72.9300 0.9851 1.0000
72.9400 2.9969 1.0000
72.9500 2.0029 1.0000
72.9600 2.0332 1.0000
72.9700 4.0179 1.0000
72.9800 2.0088 1.0000
72.9900 3.0084 1.0000
73.0000 3.9517 1.0000
73.0100 2.0255 1.0000
73.0200 3.9900 1.0000
73.0300 2.0088 1.0000
73.0400 2.9617 1.0000
73.0500 2.0002 1.0000
73.0600 1.9925 1.0000
73.0700 1.9756 1.0000
73.0800 2.9947 1.0000
73.0900 3.0119 1.0000
73.1000 2.0167 1.0000
73.1100 1.9813 1.0000
73.1200 1.9914 1.0000
73.1300 3.9406 1.0000
73.1400 1.9882 1.0000
73.1500 2.9971 1.0000
73.1600 3.9780 1.0000
73.1700 3.0181 1.0000
73.1800 1.0145 1.0000
73.1900 0.9901 1.0000
73.2000 2.0017 1.0000
73.2100 1.9922 1.0000
73.2200 0.0000 1.0000
73.2300 3.9942 1.0000
73.2400 1.9754 1.0000
73.2500 0.9936 1.0000
73.2600 3.9911 1.0000
73.2700 0.0000 1.0000
73.2800 1.0044 1.0000
73.2900 0.0000 1.0000
73.3000 4.9280 1.0000
73.3100 0.0000 1.0000
73.3200 1.9844 1.0000
73.3300 0.0000 1.0000
73.3400 3.9945 1.0000
73.3500 2.9844 1.0000
73.3600 1.9830 1.0000
73.3700 4.0296 1.0000
73.3800 1.9967 1.0000
73.3900 2.9878 1.0000
73.4000 2.9678 1.0000
73.4100 2.0229 1.0000
73.4200 0.9851 1.0000
73.4300 3.9689 1.0000
73.4400 2.9813 1.0000
73.4500 0.0000 1.0000
73.4600 1.9841 1.0000
73.4700 0.0000 1.0000
73.4800 1.9910 1.0000
73.4900 3.0075 1.0000
73.5000 1.0053 1.0000
73.5100 3.0043 1.0000
73.5200 0.9895 1.0000
73.5300 0.9873 1.0000
73.5400 1.9977 1.0000
73.5500 1.9858 1.0000
73.5600 1.9904 1.0000
73.5700 0.9894 1.0000
73.5800 0.9918 1.0000
73.5900 2.9569 1.0000
73.6000 3.9936 1.0000
73.6100 0.0000 1.0000
73.6200 0.0000 1.0000
73.6300 0.9906 1.0000
73.6400 2.9841 1.0000
73.6500 4.0043 1.0000
73.6600 0.9922 1.0000
73.6700 1.0071 1.0000
73.6800 3.0235 1.0000
73.6900 2.0127 1.0000
73.7000 1.9928 1.0000
73.7100 0.9885 1.0000
73.7200 1.9949 1.0000
73.7300 3.9488 1.0000
73.7400 0.9966 1.0000
73.7500 0.9990 1.0000
73.7600 3.0210 1.0000
73.7700 2.9668 1.0000
73.7800 2.9562 1.0000
73.7900 2.0160 1.0000
73.8000 1.0237 1.0000
73.8100 1.9904 1.0000
73.8200 1.0098 1.0000
73.8300 5.9084 1.0000
73.8400 0.9901 1.0000
73.8500 1.0080 1.0000
73.8600 0.0000 1.0000
73.8700 1.9681 1.0000
73.8800 0.0000 1.0000
73.8900 1.0149 1.0000
73.9000 2.9789 1.0000
73.9100 0.9530 1.0000
73.9200 1.9719 1.0000
73.9300 4.9329 1.0000
73.9400 0.9894 1.0000
73.9500 1.9562 1.0000
73.9600 1.9828 1.0000
73.9700 2.0267 1.0000
73.9800 2.0232 1.0000
73.9900 1.0002 1.0000
74.0000 2.0297 1.0000
74.0100 0.9867 1.0000
74.0200 1.9811 1.0000
74.0300 1.9969 1.0000
74.0400 1.9502 1.0000
74.0500 2.9842 1.0000
74.0600 1.9962 1.0000
74.0700 1.9793 1.0000
74.0800 4.9242 1.0000
74.0900 1.9512 1.0000
74.1000 1.0200 1.0000
74.1100 1.9669 1.0000
74.1200 1.9601 1.0000
74.1300 1.0032 1.0000
74.1400 3.9926 1.0000
74.1500 2.9757 1.0000
74.1600 0.9890 1.0000
74.1700 6.0237 1.0000
74.1800 1.9822 1.0000
74.1900 0.0000 1.0000
74.2000 0.0000 1.0000
74.2100 2.9823 1.0000
74.2200 1.9739 1.0000
74.2300 1.0044 1.0000
74.2400 4.9079 1.0000
74.2500 1.9916 1.0000
74.2600 1.9918 1.0000
74.2700 3.0455 1.0000
74.2800 2.9869 1.0000
74.2900 0.0000 1.0000
74.3000 1.9895 1.0000
74.3100 3.9908 1.0000
74.3200 1.9820 1.0000
74.3300 1.0208 1.0000
74.3400 2.9731 1.0000
74.3500 0.0000 1.0000
74.3600 0.9969 1.0000
74.3700 0.9922 1.0000
74.3800 2.9784 1.0000
74.3900 3.0168 1.0000
74.4000 3.9227 1.0000
74.4100 0.0000 1.0000
74.4200 1.9955 1.0000
74.4300 1.0013 1.0000
74.4400 1.9787 1.0000
74.4500 3.9414 1.0000
74.4600 1.9953 1.0000
74.4700 2.0085 1.0000
74.4800 2.9630 1.0000
74.4900 3.0032 1.0000
74.5000 1.9812 1.0000
74.5100 2.0214 1.0000
74.5200 0.9932 1.0000
74.5300 3.0065 1.0000
74.5400 1.0017 1.0000
74.5500 5.0626 1.0000
74.5600 1.9858 1.0000
74.5700 4.0209 1.0000
74.5800 2.9650 1.0000
74.5900 1.9987 1.0000
74.6000 0.0000 1.0000
74.6100 4.0041 1.0000
74.6200 0.0000 1.0000
74.6300 0.9943 1.0000
74.6400 0.9843 1.0000
74.6500 2.9871 1.0000
74.6600 1.9764 1.0000
74.6700 3.9903 1.0000
74.6800 4.9306 1.0000
74.6900 4.9893 1.0000
74.7000 0.9977 1.0000
74.7100 0.0000 1.0000
74.7200 3.0225 1.0000
74.7300 2.9560 1.0000
74.7400 1.0014 1.0000
74.7500 1.9816 1.0000
74.7600 2.9739 1.0000
74.7700 3.9669 1.0000
74.7800 0.9610 1.0000
74.7900 0.9690 1.0000
74.8000 4.0071 1.0000
74.8100 0.9951 1.0000
74.8200 1.9922 1.0000
74.8300 0.0000 1.0000
74.8400 2.0188 1.0000
74.8500 1.9533 1.0000
74.8600 5.9415 1.0000
74.8700 1.9970 1.0000
74.8800 0.9919 1.0000
74.8900 1.0115 1.0000
74.9000 1.9759 1.0000
74.9100 0.9979 1.0000
74.9200 1.9719 1.0000
74.9300 1.0030 1.0000
74.9400 1.9997 1.0000
74.9500 0.0000 1.0000
74.9600 1.3299 1.0000
74.9700 5.9579 1.0000
74.9800 3.0522 1.0000
74.9900 2.9745 1.0000
75.0000 1.9751 1.0000
75.0100 3.0039 1.0000
75.0200 1.9732 1.0000
75.0300 0.9804 1.0000
75.0400 1.9777 1.0000
75.0500 1.0237 1.0000
75.0600 1.0026 1.0000
75.0700 3.9591 1.0000
75.0800 0.9918 1.0000
75.0900 0.0000 1.0000
75.1000 0.0000 1.0000
75.1100 2.0178 1.0000
75.1200 3.9516 1.0000
75.1300 3.0081 1.0000
75.1400 4.9535 1.0000
75.1500 4.0402 1.0000
75.1600 4.0016 1.0000
75.1700 7.9484 1.0000
75.1800 1.9616 1.0000
75.1900 4.9333 1.0000
75.2000 0.9978 1.0000
75.2100 0.9871 1.0000
75.2200 2.0106 1.0000
75.2300 1.9529 1.0000
75.2400 5.0172 1.0000
75.2500 0.0000 1.0000
75.2600 0.9971 1.0000
75.2700 2.0128 1.0000
75.2800 5.0534 1.0000
75.2900 3.9874 1.0000
75.3000 0.9924 1.0000
75.3100 0.0000 1.0000
75.3200 2.9834 1.0000
75.3300 0.0000 1.0000
75.3400 6.0037 1.0000
75.3500 2.0343 1.0000
75.3600 0.0000 1.0000
75.3700 1.0013 1.0000
75.3800 2.9688 1.0000
75.3900 2.0031 1.0000
75.4000 2.9674 1.0000
75.4100 1.9451 1.0000
75.4200 5.0086 1.0000
75.4300 1.0085 1.0000
75.4400 0.9837 1.0000
75.4500 1.9963 1.0000
75.4600 0.0000 1.0000
75.4700 1.0024 1.0000
75.4800 3.9896 1.0000
75.4900 3.0236 1.0000
75.5000 4.9766 1.0000
75.5100 2.9921 1.0000
75.5200 0.0000 1.0000
75.5300 0.9870 1.0000
75.5400 0.0000 1.0000
75.5500 2.9470 1.0000
75.5600 4.0009 1.0000
75.5700 3.0021 1.0000
75.5800 1.9609 1.0000
75.5900 3.9823 1.0000
75.6000 3.0135 1.0000
75.6100 3.9680 1.0000
75.6200 2.0123 1.0000
75.6300 3.9458 1.0000
75.6400 2.9758 1.0000
75.6500 2.0028 1.0000
75.6600 1.0056 1.0000
75.6700 3.0233 1.0000
75.6800 3.0118 1.0000
75.6900 0.0000 1.0000
75.7000 0.9887 1.0000
75.7100 3.9843 1.0000
75.7200 1.9891 1.0000
75.7300 2.9722 1.0000
75.7400 1.9565 1.0000
75.7500 3.9484 1.0000
75.7600 3.0237 1.0000
75.7700 3.9937 1.0000
75.7800 1.9598 1.0000
75.7900 2.9759 1.0000
75.8000 0.0000 1.0000
75.8100 1.9776 1.0000
75.8200 4.9425 1.0000
75.8300 3.0194 1.0000
75.8400 1.0054 1.0000
75.8500 1.9879 1.0000
75.8600 1.0042 1.0000
75.8700 1.0044 1.0000
75.8800 3.9702 1.0000
75.8900 0.9629 1.0000
75.9000 4.0370 1.0000
75.9100 0.9962 1.0000
75.9200 0.9746 1.0000
75.9300 0.0000 1.0000
75.9400 2.9251 1.0000
75.9500 3.9821 1.0000
75.9600 1.0038 1.0000
75.9700 2.0263 1.0000
75.9800 0.0000 1.0000
75.9900 2.0121 1.0000
76.0000 2.0220 1.0000
76.0100 1.0152 1.0000
76.0200 4.9952 1.0000
76.0300 1.9799 1.0000
76.0400 2.9623 1.0000
76.0500 1.0034 1.0000
76.0600 0.0000 1.0000
76.0700 2.9768 1.0000
76.0800 1.9955 1.0000
76.0900 2.9948 1.0000
76.1000 0.0000 1.0000
76.1100 0.9969 1.0000
76.1200 1.9923 1.0000
76.1300 4.9086 1.0000
76.1400 2.9879 1.0000
76.1500 1.9963 1.0000
76.1600 1.9830 1.0000
76.1700 2.9616 1.0000
76.1800 0.0000 1.0000
76.1900 0.9883 1.0000
76.2000 0.9972 1.0000
76.2100 0.9789 1.0000
76.2200 2.9939 1.0000
76.2300 1.9965 1.0000
76.2400 2.9295 1.0000
76.2500 2.9858 1.0000
76.2600 0.9960 1.0000
76.2700 3.9776 1.0000
76.2800 5.0137 1.0000
76.2900 2.9652 1.0000
76.3000 1.0115 1.0000
76.3100 2.9915 1.0000
76.3200 1.9806 1.0000
76.3300 1.9884 1.0000
76.3400 5.9690 1.0000
76.3500 4.0047 1.0000
76.3600 3.9961 1.0000
76.3700 3.9899 1.0000
76.3800 3.9592 1.0000
76.3900 0.9933 1.0000
76.4000 2.9728 1.0000
76.4100 0.0000 1.0000
76.4200 1.0470 1.0000
76.4300 1.9731 1.0000
76.4400 1.9954 1.0000
76.4500 3.9760 1.0000
76.4600 1.9994 1.0000
76.4700 2.0037 1.0000
76.4800 2.9658 1.0000
76.4900 6.8731 1.0000
76.5000 2.0016 1.0000
76.5100 1.9694 1.0000
76.5200 0.0000 1.0000
76.5300 2.9809 1.0000
76.5400 1.9917 1.0000
76.5500 2.9663 1.0000
76.5600 3.9715 1.0000
76.5700 0.9585 1.0000
76.5800 2.9410 1.0000
76.5900 3.0029 1.0000
76.6000 2.9868 1.0000
76.6100 5.0283 1.0000
76.6200 1.9886 1.0000
76.6300 1.0009 1.0000
76.6400 6.9605 1.0000
76.6500 1.9857 1.0000
76.6600 2.0034 1.0000
76.6700 2.0208 1.0000
76.6800 2.0011 1.0000
76.6900 1.0136 1.0000
76.7000 4.0131 1.0000
76.7100 1.0025 1.0000
76.7200 1.0178 1.0000
76.7300 1.9478 1.0000
76.7400 0.0000 1.0000
76.7500 2.9715 1.0000
76.7600 1.9952 1.0000
76.7700 2.9842 1.0000
76.7800 1.9902 1.0000
76.7900 0.0000 1.0000
76.8000 2.9591 1.0000
76.8100 0.9695 1.0000
76.8200 2.9623 1.0000
76.8300 8.1039 1.0000
76.8400 1.9459 1.0000
76.8500 0.9892 1.0000
76.8600 1.9593 1.0000
76.8700 1.0009 1.0000
76.8800 0.9907 1.0000
76.8900 1.0201 1.0000
76.9000 1.0039 1.0000
76.9100 2.9485 1.0000
76.9200 1.9773 1.0000
76.9300 0.9869 1.0000
76.9400 0.9826 1.0000
76.9500 0.9941 1.0000
76.9600 4.0032 1.0000
76.9700 2.9809 1.0000
76.9800 1.9743 1.0000
76.9900 0.0000 1.0000
77.0000 2.9828 1.0000
77.0100 3.0146 1.0000
77.0200 1.9529 1.0000
77.0300 4.9575 1.0000
77.0400 2.9767 1.0000
77.0500 0.0000 1.0000
77.0600 1.9854 1.0000
77.0700 3.9499 1.0000
77.0800 4.9979 1.0000
77.0900 0.0000 1.0000
77.1000 3.0147 1.0000
77.1100 0.9755 1.0000
77.1200 3.9949 1.0000
77.1300 0.9816 1.0000
77.1400 0.9966 1.0000
77.1500 2.9786 1.0000
77.1600 3.9604 1.0000
77.1700 1.9960 1.0000
77.1800 0.0000 1.0000
77.1900 2.0143 1.0000
77.2000 3.9572 1.0000
77.2100 2.9824 1.0000
77.2200 2.1301 1.0000
77.2300 2.9513 1.0000
77.2400 4.0023 1.0000
77.2500 3.9595 1.0000
77.2600 6.0124 1.0000
77.2700 1.9886 1.0000
77.2800 4.0187 1.0000
77.2900 0.9948 1.0000
77.3000 2.9406 1.0000
77.3100 3.0088 1.0000
77.3200 2.9690 1.0000
77.3300 1.9717 1.0000
77.3400 1.9980 1.0000
77.3500 0.0000 1.0000
77.3600 5.9156 1.0000
77.3700 3.0096 1.0000
77.3800 4.9951 1.0000
77.3900 1.9712 1.0000
77.4000 0.9899 1.0000
77.4100 4.9634 1.0000
77.4200 0.0000 1.0000
77.4300 2.0060 1.0000
77.4400 6.9977 1.0000
77.4500 1.9595 1.0000
77.4600 2.9764 1.0000
77.4700 0.0000 1.0000
77.4800 1.9832 1.0000
77.4900 3.2949 1.0000
77.5000 3.9736 1.0000
77.5100 0.9835 1.0000
77.5200 0.9918 1.0000
77.5300 1.9783 1.0000
77.5400 4.0427 1.0000
77.5500 1.0014 1.0000
77.5600 0.9835 1.0000
77.5700 0.9816 1.0000
77.5800 3.9929 1.0000
77.5900 2.9518 1.0000
77.6000 5.9818 1.0000
77.6100 1.0079 1.0000
77.6200 4.9523 1.0000
77.6300 1.9763 1.0000
77.6400 0.9720 1.0000
77.6500 0.0000 1.0000
77.6600 1.0060 1.0000
77.6700 0.9862 1.0000
77.6800 1.9889 1.0000
77.6900 0.9843 1.0000
77.7000 1.9910 1.0000
77.7100 3.0040 1.0000
77.7200 1.0020 1.0000
77.7300 2.9737 1.0000
77.7400 2.9592 1.0000
77.7500 3.9320 1.0000
77.7600 0.9820 1.0000
77.7700 1.9969 1.0000
77.7800 0.9984 1.0000
77.7900 0.9940 1.0000
77.8000 1.0123 1.0000
77.8100 1.0049 1.0000
77.8200 0.9871 1.0000
77.8300 0.0000 1.0000
77.8400 4.9996 1.0000
77.8500 1.9942 1.0000
77.8600 3.9666 1.0000
77.8700 0.9792 1.0000
77.8800 2.9566 1.0000
77.8900 2.0249 1.0000
77.9000 0.0000 1.0000
77.9100 1.9640 1.0000
77.9200 0.9944 1.0000
77.9300 0.9807 1.0000
77.9400 1.0076 1.0000
77.9500 4.9681 1.0000
77.9600 0.9933 1.0000
77.9700 2.9691 1.0000
77.9800 2.0372 1.0000
77.9900 3.9782 1.0000
78.0000 3.9983 1.0000
78.0100 3.9312 1.0000
78.0200 4.9594 1.0000
78.0300 2.9699 1.0000
78.0400 3.0198 1.0000
78.0500 4.9128 1.0000
78.0600 2.0032 1.0000
78.0700 0.9920 1.0000
78.0800 2.0059 1.0000
78.0900 5.9746 1.0000
78.1000 1.0122 1.0000
78.1100 3.0247 1.0000
78.1200 4.0155 1.0000
78.1300 2.0363 1.0000
78.1400 1.0014 1.0000
78.1500 3.9800 1.0000
78.1600 2.9260 1.0000
78.1700 1.0017 1.0000
78.1800 1.0128 1.0000
78.1900 1.9872 1.0000
78.2000 1.0109 1.0000
78.2100 2.0166 1.0000
78.2200 4.9887 1.0000
78.2300 1.0094 1.0000
78.2400 2.0251 1.0000
78.2500 1.0007 1.0000
78.2600 5.9256 1.0000
78.2700 1.9884 1.0000
78.2800 0.0000 1.0000
78.2900 3.9604 1.0000
78.3000 1.9665 1.0000
78.3100 0.9774 1.0000
78.3200 4.9614 1.0000
78.3300 0.0000 1.0000
78.3400 3.0009 1.0000
78.3500 2.0164 1.0000
78.3600 1.9457 1.0000
78.3700 0.9883 1.0000
78.3800 2.9755 1.0000
78.3900 0.9904 1.0000
78.4000 1.0166 1.0000
78.4100 0.9725 1.0000
78.4200 0.0000 1.0000
78.4300 0.9992 1.0000
78.4400 1.0101 1.0000
78.4500 1.0121 1.0000
78.4600 3.9702 1.0000
78.4700 1.0114 1.0000
78.4800 0.0000 1.0000
78.4900 1.9939 1.0000
78.5000 2.9980 1.0000
78.5100 0.9920 1.0000
78.5200 1.9822 1.0000
78.5300 1.9780 1.0000
78.5400 0.9941 1.0000
78.5500 0.0000 1.0000
78.5600 1.0101 1.0000
78.5700 1.9545 1.0000
78.5800 0.0000 1.0000
78.5900 2.9957 1.0000
78.6000 1.9979 1.0000
78.6100 3.0194 1.0000
78.6200 1.0007 1.0000
78.6300 1.0106 1.0000
78.6400 0.9861 1.0000
78.6500 2.9664 1.0000
78.6600 0.9658 1.0000
78.6700 1.9543 1.0000
78.6800 2.9995 1.0000
78.6900 0.0000 1.0000
78.7000 2.0120 1.0000
78.7100 4.9530 1.0000
78.7200 5.0071 1.0000
78.7300 2.9702 1.0000
78.7400 4.0414 1.0000
78.7500 2.9896 1.0000
78.7600 3.0087 1.0000
78.7700 1.9951 1.0000
78.7800 2.9896 1.0000
78.7900 3.9414 1.0000
78.8000 2.0059 1.0000
78.8100 1.9519 1.0000
78.8200 0.0000 1.0000
78.8300 0.0000 1.0000
78.8400 0.9960 1.0000
78.8500 0.9792 1.0000
78.8600 2.9804 1.0000
78.8700 3.9583 1.0000
78.8800 2.9955 1.0000
78.8900 2.9887 1.0000
78.9000 1.0014 1.0000
78.9100 2.0209 1.0000
78.9200 1.0012 1.0000
78.9300 2.9668 1.0000
78.9400 4.0010 1.0000
78.9500 3.0047 1.0000
78.9600 1.9912 1.0000
78.9700 2.0016 1.0000
78.9800 0.9835 1.0000
78.9900 0.9783 1.0000
79.0000 1.9892 1.0000
79.0100 2.9878 1.0000
79.0200 0.0000 1.0000
79.0300 2.9716 1.0000
79.0400 0.0000 1.0000
79.0500 1.9827 1.0000
79.0600 5.0016 1.0000
79.0700 1.9657 1.0000
79.0800 3.9792 1.0000
79.0900 0.9955 1.0000
79.1000 0.9847 1.0000
79.1100 4.9576 1.0000
79.1200 0.0000 1.0000
79.1300 0.0000 1.0000
79.1400 1.9509 1.0000
79.1500 0.0000 1.0000
79.1600 2.0087 1.0000
79.1700 0.0000 1.0000
79.1800 1.0062 1.0000
79.1900 1.9891 1.0000
79.2000 0.0000 1.0000
79.2100 1.0090 1.0000
79.2200 3.0012 1.0000
79.2300 1.9970 1.0000
79.2400 2.9612 1.0000
79.2500 6.9765 1.0000
79.2600 0.0000 1.0000
79.2700 3.9609 1.0000
79.2800 3.9679 1.0000
79.2900 3.0234 1.0000
79.3000 2.9777 1.0000
79.3100 1.9687 1.0000
79.3200 0.0000 1.0000
79.3300 0.0000 1.0000
79.3400 7.9099 1.0000
79.3500 0.0000 1.0000
79.3600 0.0000 1.0000
79.3700 0.9931 1.0000
79.3800 1.9932 1.0000
79.3900 2.0038 1.0000
79.4000 6.8994 1.0000
79.4100 2.0083 1.0000
79.4200 2.9677 1.0000
79.4300 2.9921 1.0000
79.4400 2.9827 1.0000
79.4500 1.1427 1.0000
79.4600 1.9828 1.0000
79.4700 1.0175 1.0000
79.4800 0.0000 1.0000
79.4900 1.9987 1.0000
79.5000 0.9893 1.0000
79.5100 4.0057 1.0000
79.5200 3.0072 1.0000
79.5300 1.9898 1.0000
79.5400 2.9832 1.0000
79.5500 1.0025 1.0000
79.5600 0.9629 1.0000
79.5700 1.9871 1.0000
79.5800 2.0200 1.0000
79.5900 1.9821 1.0000
79.6000 3.0275 1.0000
79.6100 1.9788 1.0000
79.6200 0.9959 1.0000
79.6300 2.9639 1.0000
79.6400 2.0161 1.0000
79.6500 1.0294 1.0000
79.6600 3.0226 1.0000
79.6700 1.9724 1.0000
79.6800 1.0038 1.0000
79.6900 0.9836 1.0000
79.7000 2.9982 1.0000
79.7100 2.0268 1.0000
79.7200 1.9698 1.0000
79.7300 1.0308 1.0000
79.7400 0.0000 1.0000
79.7500 0.9990 1.0000
79.7600 0.0000 1.0000
79.7700 2.9815 1.0000
79.7800 1.9733 1.0000
79.7900 1.9873 1.0000
79.8000 0.9848 1.0000
79.8100 1.9677 1.0000
79.8200 0.9928 1.0000
79.8300 6.9003 1.0000
79.8400 0.9996 1.0000
79.8500 3.9884 1.0000
79.8600 3.9852 1.0000
79.8700 4.0173 1.0000
79.8800 0.0000 1.0000
79.8900 0.0000 1.0000
79.9000 2.9889 1.0000
79.9100 2.9866 1.0000
79.9200 1.9664 1.0000
79.9300 1.9746 1.0000
79.9400 1.9891 1.0000
79.9500 1.9753 1.0000
79.9600 0.0000 1.0000
79.9700 0.0000 1.0000
79.9800 5.9522 1.0000
79.9900 1.0014 1.0000
80.0000 0.0000 1.0000
80.0100 2.9839 1.0000
80.0200 2.9652 1.0000
80.0300 0.9756 1.0000
80.0400 0.0000 1.0000
80.0500 0.9893 1.0000
80.0600 1.9861 1.0000
80.0700 0.9979 1.0000
80.0800 1.9782 1.0000
80.0900 1.0020 1.0000
80.1000 2.9581 1.0000
80.1100 1.9899 1.0000
80.1200 3.9794 1.0000
80.1300 2.9968 1.0000
80.1400 3.0083 1.0000
80.1500 1.0025 1.0000
80.1600 3.0157 1.0000
80.1700 5.9419 1.0000
80.1800 2.9878 1.0000
80.1900 0.0000 1.0000
80.2000 0.9988 1.0000
80.2100 0.9819 1.0000
80.2200 0.0000 1.0000
80.2300 1.9946 1.0000
80.2400 0.9818 1.0000
80.2500 3.0224 1.0000
80.2600 1.9997 1.0000
80.2700 1.9764 1.0000
80.2800 0.0000 1.0000
80.2900 2.9635 1.0000
80.3000 0.9997 1.0000
80.3100 0.9905 1.0000
80.3200 2.9983 1.0000
80.3300 4.9329 1.0000
80.3400 1.0055 1.0000
80.3500 1.0013 1.0000
80.3600 3.9824 1.0000
80.3700 0.9908 1.0000
80.3800 0.9990 1.0000
80.3900 0.0000 1.0000
80.4000 0.0000 1.0000
80.4100 1.0018 1.0000
80.4200 2.9845 1.0000
80.4300 0.9952 1.0000
80.4400 1.0002 1.0000
80.4500 0.0000 1.0000
80.4600 1.9705 1.0000
80.4700 1.0016 1.0000
80.4800 1.9906 1.0000
80.4900 0.9794 1.0000
80.5000 1.9725 1.0000
80.5100 0.9955 1.0000
80.5200 1.0101 1.0000
80.5300 0.9996 1.0000
80.5400 4.9790 1.0000
80.5500 1.0411 1.0000
80.5600 2.9412 1.0000
80.5700 3.0125 1.0000
80.5800 2.9846 1.0000
80.5900 0.0000 1.0000
80.6000 1.9923 1.0000
80.6100 1.9752 1.0000
80.6200 1.0135 1.0000
80.6300 1.0115 1.0000
80.6400 5.0270 1.0000
80.6500 1.9945 1.0000
80.6600 3.9541 1.0000
80.6700 1.9878 1.0000
80.6800 1.9881 1.0000
80.6900 2.9691 1.0000
80.7000 2.9645 1.0000
80.7100 3.9680 1.0000
80.7200 2.9965 1.0000
80.7300 2.9795 1.0000
80.7400 3.9911 1.0000
80.7500 0.9741 1.0000
80.7600 3.9601 1.0000
80.7700 0.0000 1.0000
80.7800 0.9812 1.0000
80.7900 0.9894 1.0000
80.8000 2.9887 1.0000
80.8100 2.0459 1.0000
80.8200 4.9603 1.0000
80.8300 1.0019 1.0000
80.8400 3.9934 1.0000
80.8500 0.9902 1.0000
80.8600 2.0133 1.0000
80.8700 2.9780 1.0000
80.8800 0.0000 1.0000
80.8900 4.0260 1.0000
80.9000 1.9852 1.0000
80.9100 3.9618 1.0000
80.9200 1.0288 1.0000
80.9300 1.9933 1.0000
80.9400 0.0000 1.0000
80.9500 2.9431 1.0000
80.9600 1.9981 1.0000
80.9700 0.9997 1.0000
80.9800 3.9437 1.0000
80.9900 0.0000 1.0000
81.0000 1.9878 1.0000
81.0100 3.9561 1.0000
81.0200 0.0000 1.0000
81.0300 4.9832 1.0000
81.0400 1.0037 1.0000
81.0500 1.0264 1.0000
81.0600 2.9681 1.0000
81.0700 1.0288 1.0000
81.0800 0.0000 1.0000
81.0900 0.0000 1.0000
81.1000 1.9736 1.0000
81.1100 4.9656 1.0000
81.1200 1.9958 1.0000
81.1300 1.0309 1.0000
81.1400 4.9316 1.0000
81.1500 2.9925 1.0000
81.1600 3.9784 1.0000
81.1700 1.9960 1.0000
81.1800 3.9656 1.0000
81.1900 4.9631 1.0000
81.2000 2.9999 1.0000
81.2100 0.0000 1.0000
81.2200 2.9798 1.0000
81.2300 1.0056 1.0000
81.2400 0.9918 1.0000
81.2500 0.0000 1.0000
81.2600 2.0115 1.0000
81.2700 1.9963 1.0000
81.2800 1.9942 1.0000
81.2900 0.9932 1.0000
81.3000 1.9689 1.0000
81.3100 1.9886 1.0000
81.3200 3.0326 1.0000
81.3300 0.9929 1.0000
81.3400 0.9877 1.0000
81.3500 3.9742 1.0000
81.3600 3.0381 1.0000
81.3700 2.9666 1.0000
81.3800 1.0019 1.0000
81.3900 0.9891 1.0000
81.4000 1.9606 1.0000
81.4100 3.0035 1.0000
81.4200 0.9713 1.0000
81.4300 3.9566 1.0000
81.4400 2.0042 1.0000
81.4500 4.0331 1.0000
81.4600 3.9673 1.0000
81.4700 5.9806 1.0000
81.4800 5.0291 1.0000
81.4900 1.9675 1.0000
81.5000 1.9813 1.0000
81.5100 0.9821 1.0000
81.5200 0.0000 1.0000
81.5300 1.9772 1.0000
81.5400 1.9872 1.0000
81.5500 1.0056 1.0000
81.5600 0.9912 1.0000
81.5700 3.9946 1.0000
81.5800 2.0011 1.0000
81.5900 3.9944 1.0000
81.6000 0.0000 1.0000
81.6100 2.9843 1.0000
81.6200 2.9714 1.0000
81.6300 1.0063 1.0000
81.6400 3.9867 1.0000
81.6500 2.0066 1.0000
81.6600 1.9790 1.0000
81.6700 1.9937 1.0000
81.6800 0.0000 1.0000
81.6900 2.9892 1.0000
81.7000 0.9960 1.0000
81.7100 0.9907 1.0000
81.7200 2.9857 1.0000
81.7300 0.0000 1.0000
81.7400 5.9573 1.0000
81.7500 2.9860 1.0000
81.7600 5.0187 1.0000
81.7700 2.9901 1.0000
81.7800 3.9859 1.0000
81.7900 0.9918 1.0000
81.8000 2.9952 1.0000
81.8100 3.0136 1.0000
81.8200 5.0089 1.0000
81.8300 4.0076 1.0000
81.8400 1.9554 1.0000
81.8500 3.9574 1.0000
81.8600 3.9725 1.0000
81.8700 1.0411 1.0000
81.8800 3.0143 1.0000
81.8900 4.9871 1.0000
81.9000 1.9677 1.0000
81.9100 2.9857 1.0000
81.9200 6.9732 1.0000
81.9300 0.9755 1.0000
81.9400 1.9964 1.0000
81.9500 0.9890 1.0000
81.9600 0.9891 1.0000
81.9700 2.9850 1.0000
81.9800 4.0257 1.0000
81.9900 4.9298 1.0000
82.0000 6.9069 1.0000
82.0100 0.0000 1.0000
82.0200 0.9904 1.0000
82.0300 3.0282 1.0000
82.0400 2.9923 1.0000
82.0500 2.9766 1.0000
82.0600 4.9726 1.0000
82.0700 3.9778 1.0000
82.0800 3.0019 1.0000
82.0900 3.9191 1.0000
82.1000 4.9611 1.0000
82.1100 1.9944 1.0000
82.1200 1.0237 1.0000
82.1300 2.0145 1.0000
82.1400 3.9506 1.0000
82.1500 1.9680 1.0000
82.1600 4.9762 1.0000
82.1700 2.9760 1.0000
82.1800 2.0115 1.0000
82.1900 0.9933 1.0000
82.2000 1.0309 1.0000
82.2100 0.9861 1.0000
82.2200 0.9531 1.0000
82.2300 2.9954 1.0000
82.2400 1.9936 1.0000
82.2500 2.9418 1.0000
82.2600 2.0140 1.0000
82.2700 0.0000 1.0000
82.2800 1.0017 1.0000
82.2900 1.9918 1.0000
82.3000 0.9994 1.0000
82.3100 0.0000 1.0000
82.3200 2.0047 1.0000
82.3300 2.0210 1.0000
82.3400 2.0122 1.0000
82.3500 3.0141 1.0000
82.3600 0.9862 1.0000
82.3700 2.0139 1.0000
82.3800 0.0000 1.0000
82.3900 2.0004 1.0000
82.4000 0.9802 1.0000
82.4100 0.0000 1.0000
82.4200 1.0198 1.0000
82.4300 0.0000 1.0000
82.4400 5.9445 1.0000
82.4500 2.9678 1.0000
82.4600 1.9674 1.0000
82.4700 0.9783 1.0000
82.4800 0.0000 1.0000
82.4900 4.9528 1.0000
82.5000 1.0172 1.0000
82.5100 1.9925 1.0000
82.5200 1.0149 1.0000
82.5300 2.9383 1.0000
82.5400 3.0385 1.0000
82.5500 0.9940 1.0000
82.5600 2.9600 1.0000
82.5700 1.0049 1.0000
82.5800 1.9940 1.0000
82.5900 2.0050 1.0000
82.6000 0.0000 1.0000
82.6100 0.9953 1.0000
82.6200 2.9998 1.0000
82.6300 0.0000 1.0000
82.6400 0.9948 1.0000
82.6500 2.0103 1.0000
82.6600 0.0000 1.0000
82.6700 1.9538 1.0000
82.6800 0.9794 1.0000
82.6900 2.0046 1.0000
82.7000 1.9939 1.0000
82.7100 3.9539 1.0000
82.7200 0.0000 1.0000
82.7300 1.9872 1.0000
82.7400 2.0192 1.0000
82.7500 3.9767 1.0000
82.7600 0.0000 1.0000
82.7700 2.9796 1.0000
82.7800 1.9920 1.0000
82.7900 2.9865 1.0000
82.8000 2.0112 1.0000
82.8100 0.0000 1.0000
82.8200 1.0054 1.0000
82.8300 3.9856 1.0000
82.8400 0.0000 1.0000
82.8500 0.0000 1.0000
82.8600 0.9906 1.0000
82.8700 0.0000 1.0000
82.8800 0.0000 1.0000
82.8900 1.9982 1.0000
82.9000 1.9679 1.0000
82.9100 1.0091 1.0000
82.9200 1.9840 1.0000
82.9300 5.9671 1.0000
82.9400 2.0021 1.0000
82.9500 3.0111 1.0000
82.9600 4.9996 1.0000
82.9700 0.0000 1.0000
82.9800 0.0000 1.0000
82.9900 3.0147 1.0000
83.0000 2.0094 1.0000
83.0100 0.9960 1.0000
83.0200 2.9831 1.0000
83.0300 1.0337 1.0000
83.0400 3.0094 1.0000
83.0500 0.0000 1.0000
83.0600 4.0922 1.0000
83.0700 4.9362 1.0000
83.0800 2.0062 1.0000
83.0900 2.0065 1.0000
83.1000 1.0026 1.0000
83.1100 3.0128 1.0000
83.1200 0.9980 1.0000
83.1300 2.0218 1.0000
83.1400 0.9658 1.0000
83.1500 1.9471 1.0000
83.1600 0.9728 1.0000
83.1700 2.9548 1.0000
83.1800 5.0018 1.0000
83.1900 0.0000 1.0000
83.2000 0.0000 1.0000
83.2100 1.0022 1.0000
83.2200 1.9401 1.0000
83.2300 0.9995 1.0000
83.2400 1.0186 1.0000
83.2500 0.9791 1.0000
83.2600 3.9747 1.0000
83.2700 3.9634 1.0000
83.2800 3.9307 1.0000
83.2900 0.9990 1.0000
83.3000 0.9907 1.0000
83.3100 3.9857 1.0000
83.3200 1.0059 1.0000
83.3300 1.0019 1.0000
83.3400 3.9797 1.0000
83.3500 2.9770 1.0000
83.3600 0.9862 1.0000
83.3700 2.9795 1.0000
83.3800 0.9585 1.0000
83.3900 0.0000 1.0000
83.4000 4.0093 1.0000
83.4100 0.0000 1.0000
83.4200 2.0041 1.0000
83.4300 0.9682 1.0000
83.4400 3.9836 1.0000
83.4500 0.9893 1.0000
83.4600 0.9794 1.0000
83.4700 0.9791 1.0000
83.4800 0.0000 1.0000
83.4900 3.9771 1.0000
83.5000 1.9962 1.0000
83.5100 2.0057 1.0000
83.5200 3.9907 1.0000
83.5300 3.9634 1.0000
83.5400 3.9551 1.0000
83.5500 2.9788 1.0000
83.5600 0.9861 1.0000
83.5700 3.0018 1.0000
83.5800 2.0279 1.0000
83.5900 1.9676 1.0000
83.6000 1.9811 1.0000
83.6100 0.0000 1.0000
83.6200 4.9579 1.0000
83.6300 2.9599 1.0000
83.6400 0.0000 1.0000
83.6500 0.9930 1.0000
83.6600 0.9849 1.0000
83.6700 5.9771 1.0000
83.6800 1.0045 1.0000
83.6900 4.9461 1.0000
83.7000 1.9423 1.0000
83.7100 1.9960 1.0000
83.7200 0.9890 1.0000
83.7300 2.9745 1.0000
83.7400 0.0000 1.0000
83.7500 0.9998 1.0000
83.7600 0.0000 1.0000
83.7700 2.9552 1.0000
83.7800 3.0352 1.0000
83.7900 0.0000 1.0000
83.8000 1.9876 1.0000
83.8100 2.0019 1.0000
83.8200 3.9815 1.0000
83.8300 3.9968 1.0000
83.8400 0.9741 1.0000
83.8500 4.0082 1.0000
83.8600 0.9777 1.0000
83.8700 0.9845 1.0000
83.8800 0.9837 1.0000
83.8900 1.9918 1.0000
83.9000 1.9998 1.0000
83.9100 1.9849 1.0000
83.9200 0.0000 1.0000
83.9300 0.9884 1.0000
83.9400 1.9838 1.0000
83.9500 0.9918 1.0000
83.9600 0.0000 1.0000
83.9700 2.0056 1.0000
83.9800 3.9793 1.0000
83.9900 3.0063 1.0000
84.0000 0.0000 1.0000
84.0100 0.0000 1.0000
84.0200 1.0312 1.0000
84.0300 2.9705 1.0000
84.0400 0.9965 1.0000
84.0500 0.9935 1.0000
84.0600 1.9822 1.0000
84.0700 4.9471 1.0000
84.0800 1.9651 1.0000
84.0900 4.9545 1.0000
84.1000 7.9373 1.0000
84.1100 4.9749 1.0000
84.1200 0.9849 1.0000
84.1300 0.9728 1.0000
84.1400 2.0021 1.0000
84.1500 0.9835 1.0000
84.1600 1.9631 1.0000
84.1700 3.0257 1.0000
84.1800 0.0000 1.0000
84.1900 3.9291 1.0000
84.2000 2.0078 1.0000
84.2100 1.9666 1.0000
84.2200 5.0075 1.0000
84.2300 4.9833 1.0000
84.2400 1.9680 1.0000
84.2500 0.9983 1.0000
84.2600 3.9855 1.0000
84.2700 0.9914 1.0000
84.2800 0.0000 1.0000
84.2900 3.9296 1.0000
84.3000 2.0246 1.0000
84.3100 0.0000 1.0000
84.3200 4.0132 1.0000
84.3300 2.0008 1.0000
84.3400 1.9849 1.0000
84.3500 0.9948 1.0000
84.3600 0.0000 1.0000
84.3700 0.0000 1.0000
84.3800 0.0000 1.0000
84.3900 3.9737 1.0000
84.4000 2.0097 1.0000
84.4100 1.9360 1.0000
84.4200 0.9746 1.0000
84.4300 0.9839 1.0000
84.4400 0.9994 1.0000
84.4500 1.0001 1.0000
84.4600 4.9178 1.0000
84.4700 0.0000 1.0000
84.4800 2.0132 1.0000
84.4900 1.9855 1.0000
84.5000 4.9912 1.0000
84.5100 1.9797 1.0000
84.5200 0.9826 1.0000
84.5300 3.9629 1.0000
84.5400 0.9530 1.0000
84.5500 0.9755 1.0000
84.5600 4.9976 1.0000
84.5700 3.0264 1.0000
84.5800 0.9756 1.0000
84.5900 3.9654 1.0000
84.6000 2.0272 1.0000
84.6100 0.9880 1.0000
84.6200 0.9865 1.0000
84.6300 1.9934 1.0000
84.6400 4.9798 1.0000
84.6500 1.0063 1.0000
84.6600 2.9577 1.0000
84.6700 0.0000 1.0000
84.6800 1.9730 1.0000
84.6900 1.9795 1.0000
84.7000 0.0000 1.0000
84.7100 3.0005 1.0000
84.7200 1.0065 1.0000
84.7300 2.0016 1.0000
84.7400 2.9526 1.0000
84.7500 5.0273 1.0000
84.7600 0.9926 1.0000
84.7700 2.0279 1.0000
84.7800 0.9629 1.0000
84.7900 1.0201 1.0000
84.8000 1.9630 1.0000
84.8100 1.9886 1.0000
84.8200 2.0012 1.0000
84.8300 0.9836 1.0000
84.8400 3.0102 1.0000
84.8500 1.9937 1.0000
84.8600 2.9568 1.0000
84.8700 1.9823 1.0000
84.8800 1.0284 1.0000
84.8900 0.0000 1.0000
84.9000 0.0000 1.0000
84.9100 2.0269 1.0000
84.9200 0.9908 1.0000
84.9300 0.0000 1.0000
84.9400 0.9711 1.0000
84.9500 1.9852 1.0000
84.9600 2.0090 1.0000
84.9700 2.9566 1.0000
84.9800 2.0503 1.0000
84.9900 3.1483 1.0000
85.0000 1.9611 1.0000
85.0100 4.9924 1.0000
85.0200 1.0050 1.0000
85.0300 2.0114 1.0000
85.0400 0.0000 1.0000
85.0500 2.0080 1.0000
85.0600 5.0727 1.0000
85.0700 1.0055 1.0000
85.0800 2.9993 1.0000
85.0900 0.9766 1.0000
85.1000 0.9831 1.0000
85.1100 0.9965 1.0000
85.1200 4.9588 1.0000
85.1300 3.0153 1.0000
85.1400 1.0039 1.0000
85.1500 4.9972 1.0000
85.1600 1.9786 1.0000
85.1700 0.9871 1.0000
85.1800 0.0000 1.0000
85.1900 0.9762 1.0000
85.2000 0.9995 1.0000
85.2100 1.0030 1.0000
85.2200 3.0087 1.0000
85.2300 4.0132 1.0000
85.2400 1.9306 1.0000
85.2500 3.9831 1.0000
85.2600 1.9853 1.0000
85.2700 1.9707 1.0000
85.2800 1.9669 1.0000
85.2900 2.0103 1.0000
85.3000 1.9801 1.0000
85.3100 0.9863 1.0000
85.3200 1.9672 1.0000
85.3300 3.9933 1.0000
85.3400 2.9566 1.0000
85.3500 3.9567 1.0000
85.3600 1.9768 1.0000
85.3700 1.9745 1.0000
85.3800 2.0079 1.0000
85.3900 1.9858 1.0000
85.4000 2.0157 1.0000
85.4100 1.9799 1.0000
85.4200 0.0000 1.0000
85.4300 0.0000 1.0000
85.4400 1.9856 1.0000
85.4500 4.9786 1.0000
85.4600 0.0000 1.0000
85.4700 0.0000 1.0000
85.4800 3.9434 1.0000
85.4900 3.9704 1.0000
85.5000 0.9755 1.0000
85.5100 3.0217 1.0000
85.5200 2.0071 1.0000
85.5300 4.9732 1.0000
85.5400 3.0000 1.0000
85.5500 0.0000 1.0000
85.5600 0.9530 1.0000
85.5700 2.0050 1.0000
85.5800 2.0137 1.0000
85.5900 1.0156 1.0000
85.6000 3.0103 1.0000
85.6100 0.9930 1.0000
85.6200 1.9928 1.0000
85.6300 3.9568 1.0000
85.6400 0.9940 1.0000
85.6500 4.9668 1.0000
85.6600 1.9687 1.0000
85.6700 7.9452 1.0000
85.6800 2.9780 1.0000
85.6900 1.9952 1.0000
85.7000 0.0000 1.0000
85.7100 2.9966 1.0000
85.7200 0.0000 1.0000
85.7300 0.0000 1.0000
85.7400 1.9925 1.0000
85.7500 0.9839 1.0000
85.7600 3.9625 1.0000
85.7700 1.9734 1.0000
85.7800 2.9761 1.0000
85.7900 3.9688 1.0000
85.8000 0.9736 1.0000
85.8100 2.9902 1.0000
85.8200 5.0280 1.0000
85.8300 1.9929 1.0000
85.8400 4.9720 1.0000
85.8500 0.0000 1.0000
85.8600 0.9711 1.0000
85.8700 2.0219 1.0000
85.8800 0.9990 1.0000
85.8900 0.0000 1.0000
85.9000 0.9945 1.0000
85.9100 2.0163 1.0000
85.9200 0.9850 1.0000
85.9300 0.0000 1.0000
85.9400 2.9757 1.0000
85.9500 3.0174 1.0000
85.9600 2.9577 1.0000
85.9700 0.9955 1.0000
85.9800 1.9697 1.0000
85.9900 0.0000 1.0000
86.0000 1.0286 1.0000
86.0100 0.0000 1.0000
86.0200 0.9840 1.0000
86.0300 1.9659 1.0000
86.0400 0.9804 1.0000
86.0500 1.9840 1.0000
86.0600 0.0000 1.0000
86.0700 1.0002 1.0000
86.0800 6.0021 1.0000
86.0900 2.9966 1.0000
86.1000 0.0000 1.0000
86.1100 1.9691 1.0000
86.1200 1.9712 1.0000
86.1300 0.0000 1.0000
86.1400 0.9954 1.0000
86.1500 1.9749 1.0000
86.1600 3.9751 1.0000
86.1700 1.9799 1.0000
86.1800 3.9736 1.0000
86.1900 2.0079 1.0000
86.2000 1.0060 1.0000
86.2100 0.0000 1.0000
86.2200 0.0000 1.0000
86.2300 5.9311 1.0000
86.2400 0.9938 1.0000
86.2500 3.9761 1.0000
86.2600 0.9975 1.0000
86.2700 1.9588 1.0000
86.2800 0.9892 1.0000
86.2900 2.9422 1.0000
86.3000 3.0247 1.0000
86.3100 4.0065 1.0000
86.3200 3.9743 1.0000
86.3300 3.9703 1.0000
86.3400 1.0026 1.0000
86.3500 0.9783 1.0000
86.3600 0.9851 1.0000
86.3700 4.9563 1.0000
86.3800 2.9925 1.0000
86.3900 0.9954 1.0000
86.4000 1.9868 1.0000
86.4100 4.0597 1.0000
86.4200 0.9893 1.0000
86.4300 1.9742 1.0000
86.4400 2.0188 1.0000
86.4500 0.0000 1.0000
86.4600 3.0095 1.0000
86.4700 0.9781 1.0000
86.4800 4.9314 1.0000
86.4900 2.9819 1.0000
86.5000 1.0101 1.0000
86.5100 1.9911 1.0000
86.5200 0.9980 1.0000
86.5300 1.9921 1.0000
86.5400 0.0000 1.0000
86.5500 2.9508 1.0000
86.5600 1.0010 1.0000
86.5700 4.9967 1.0000
86.5800 0.0000 1.0000
86.5900 2.9492 1.0000
86.6000 1.9870 1.0000
86.6100 2.0129 1.0000
86.6200 0.0000 1.0000
86.6300 1.0166 1.0000
86.6400 3.9626 1.0000
86.6500 1.0010 1.0000
86.6600 0.9802 1.0000
86.6700 0.0000 1.0000
86.6800 1.0087 1.0000
86.6900 0.9920 1.0000
86.7000 2.9915 1.0000
86.7100 0.0000 1.0000
86.7200 1.9590 1.0000
86.7300 2.0182 1.0000
86.7400 1.9937 1.0000
86.7500 4.9603 1.0000
86.7600 0.0000 1.0000
86.7700 1.9613 1.0000
86.7800 1.0308 1.0000
86.7900 3.0121 1.0000
86.8000 3.0194 1.0000
86.8100 3.9481 1.0000
86.8200 0.9922 1.0000
86.8300 2.0189 1.0000
86.8400 2.0176 1.0000
86.8500 5.0446 1.0000
86.8600 2.0151 1.0000
86.8700 1.0156 1.0000
86.8800 1.0256 1.0000
86.8900 2.9812 1.0000
86.9000 2.9579 1.0000
86.9100 3.9601 1.0000
86.9200 1.9923 1.0000
86.9300 2.0134 1.0000
86.9400 4.0233 1.0000
86.9500 0.0000 1.0000
86.9600 1.0283 1.0000
86.9700 3.9791 1.0000
86.9800 5.9751 1.0000
86.9900 2.9928 1.0000
87.0000 0.9825 1.0000
87.0100 2.9826 1.0000
87.0200 0.9875 1.0000
87.0300 1.9720 1.0000
87.0400 3.0089 1.0000
87.0500 0.0000 1.0000
87.0600 0.9935 1.0000
87.0700 0.0000 1.0000
87.0800 0.0000 1.0000
87.0900 3.9554 1.0000
87.1000 2.0049 1.0000
87.1100 1.9635 1.0000
87.1200 2.9978 1.0000
87.1300 1.0098 1.0000
87.1400 2.9858 1.0000
87.1500 2.9712 1.0000
87.1600 3.9578 1.0000
87.1700 0.9984 1.0000
87.1800 1.9908 1.0000
87.1900 0.0000 1.0000
87.2000 3.0008 1.0000
87.2100 0.9955 1.0000
87.2200 1.9893 1.0000
87.2300 3.9697 1.0000
87.2400 2.9825 1.0000
87.2500 0.0000 1.0000
87.2600 1.9943 1.0000
87.2700 1.9685 1.0000
87.2800 1.0039 1.0000
87.2900 4.9611 1.0000
87.3000 1.0071 1.0000
87.3100 2.0016 1.0000
87.3200 0.0000 1.0000
87.3300 1.9851 1.0000
87.3400 3.9922 1.0000
87.3500 2.9658 1.0000
87.3600 0.0000 1.0000
87.3700 1.0251 1.0000
87.3800 1.9869 1.0000
87.3900 0.0000 1.0000
87.4000 3.0534 1.0000
87.4100 1.9703 1.0000
87.4200 2.9877 1.0000
87.4300 4.9604 1.0000
87.4400 0.9829 1.0000
87.4500 2.0585 1.0000
87.4600 2.0028 1.0000
87.4700 6.0008 1.0000
87.4800 6.0081 1.0000
87.4900 0.9898 1.0000
87.5000 1.9874 1.0000
87.5100 1.9836 1.0000
87.5200 4.9861 1.0000
87.5300 1.9990 1.0000
87.5400 3.0452 1.0000
87.5500 5.0527 1.0000
87.5600 1.0060 1.0000
87.5700 1.9959 1.0000
87.5800 3.9998 1.0000
87.5900 1.9879 1.0000
87.6000 0.9928 1.0000
87.6100 1.9889 1.0000
87.6200 0.9960 1.0000
87.6300 0.9980 1.0000
87.6400 0.9940 1.0000
87.6500 0.9899 1.0000
87.6600 4.9690 1.0000
87.6700 3.0403 1.0000
87.6800 1.9912 1.0000
87.6900 1.9947 1.0000
87.7000 1.9842 1.0000
87.7100 2.0121 1.0000
87.7200 3.9814 1.0000
87.7300 3.0571 1.0000
87.7400 1.9791 1.0000
87.7500 3.0047 1.0000
87.7600 0.9942 1.0000
87.7700 0.0000 1.0000
87.7800 0.9969 1.0000
87.7900 2.0153 1.0000
87.8000 2.9840 1.0000
87.8100 3.9916 1.0000
87.8200 1.9780 1.0000
87.8300 3.0076 1.0000
87.8400 2.9901 1.0000
87.8500 0.9820 1.0000
87.8600 1.9566 1.0000
87.8700 4.9916 1.0000
87.8800 0.9924 1.0000
87.8900 1.0022 1.0000
87.9000 0.9950 1.0000
87.9100 0.0000 1.0000
87.9200 0.0000 1.0000
87.9300 2.9663 1.0000
87.9400 2.9901 1.0000
87.9500 0.9811 1.0000
87.9600 2.9692 1.0000
87.9700 1.9993 1.0000
87.9800 1.9989 1.0000
87.9900 2.0136 1.0000
88.0000 1.9412 1.0000
88.0100 2.9662 1.0000
88.0200 1.0078 1.0000
88.0300 5.9679 1.0000
88.0400 3.0137 1.0000
88.0500 1.9623 1.0000
88.0600 1.9762 1.0000
88.0700 0.0000 1.0000
88.0800 0.0000 1.0000
88.0900 1.9449 1.0000
88.1000 2.9445 1.0000
88.1100 1.9538 1.0000
88.1200 6.9490 1.0000
88.1300 4.0101 1.0000
88.1400 0.0000 1.0000
88.1500 0.9975 1.0000
88.1600 1.9826 1.0000
88.1700 0.9912 1.0000
88.1800 0.9840 1.0000
88.1900 1.9911 1.0000
88.2000 0.9629 1.0000
88.2100 2.9833 1.0000
88.2200 1.9728 1.0000
88.2300 5.0183 1.0000
88.2400 0.9854 1.0000
88.2500 0.9993 1.0000
88.2600 2.0130 1.0000
88.2700 1.9793 1.0000
88.2800 1.9945 1.0000
88.2900 0.9977 1.0000
88.3000 4.9958 1.0000
88.3100 0.9869 1.0000
88.3200 4.0532 1.0000
88.3300 2.9957 1.0000
88.3400 0.9920 1.0000
88.3500 4.0305 1.0000
88.3600 1.9719 1.0000
88.3700 0.0000 1.0000
88.3800 0.9959 1.0000
88.3900 2.0053 1.0000
88.4000 1.0312 1.0000
88.4100 0.0000 1.0000
88.4200 0.9774 1.0000
88.4300 2.9809 1.0000
88.4400 1.0050 1.0000
88.4500 1.9610 1.0000
88.4600 4.9996 1.0000
88.4700 0.0000 1.0000
88.4800 1.9701 1.0000
88.4900 4.9751 1.0000
88.5000 2.9426 1.0000
88.5100 0.9953 1.0000
88.5200 4.0041 1.0000
88.5300 5.9648 1.0000
88.5400 3.9318 1.0000
88.5500 0.0000 1.0000
88.5600 0.9926 1.0000
88.5700 2.9266 1.0000
88.5800 1.9824 1.0000
88.5900 6.9225 1.0000
88.6000 2.9805 1.0000
88.6100 0.0000 1.0000
88.6200 1.0014 1.0000
88.6300 0.0000 1.0000
88.6400 0.0000 1.0000
88.6500 1.0002 1.0000
88.6600 0.9907 1.0000
88.6700 0.0000 1.0000
88.6800 1.0136 1.0000
88.6900 2.0297 1.0000
88.7000 4.9263 1.0000
88.7100 2.9848 1.0000
88.7200 2.9736 1.0000
88.7300 4.9630 1.0000
88.7400 2.9896 1.0000
88.7500 1.9823 1.0000
88.7600 5.0134 1.0000
88.7700 1.0078 1.0000
88.7800 0.9819 1.0000
88.7900 0.0000 1.0000
88.8000 2.9959 1.0000
88.8100 1.0117 1.0000
88.8200 2.0057 1.0000
88.8300 0.0000 1.0000
88.8400 3.9647 1.0000
88.8500 2.9615 1.0000
88.8600 3.0168 1.0000
88.8700 2.9689 1.0000
88.8800 2.9853 1.0000
88.8900 3.0089 1.0000
88.9000 0.0000 1.0000
88.9100 1.0027 1.0000
88.9200 0.0000 1.0000
88.9300 0.0000 1.0000
88.9400 0.9993 1.0000
88.9500 3.9898 1.0000
88.9600 1.9912 1.0000
88.9700 3.9961 1.0000
88.9800 2.9996 1.0000
88.9900 1.9775 1.0000
89.0000 0.9889 1.0000
89.0100 0.9932 1.0000
89.0200 0.9977 1.0000
89.0300 3.9640 1.0000
89.0400 0.0000 1.0000
89.0500 0.9767 1.0000
89.0600 0.9859 1.0000
89.0700 1.9859 1.0000
89.0800 1.0089 1.0000
89.0900 4.0251 1.0000
89.1000 0.9691 1.0000
89.1100 1.0306 1.0000
89.1200 0.9953 1.0000
89.1300 0.0000 1.0000
89.1400 1.9824 1.0000
89.1500 2.9843 1.0000
89.1600 0.9720 1.0000
89.1700 2.9306 1.0000
89.1800 0.9953 1.0000
89.1900 3.9413 1.0000
89.2000 5.0315 1.0000
89.2100 3.1212 1.0000
89.2200 1.9891 1.0000
89.2300 0.9933 1.0000
89.2400 0.9960 1.0000
89.2500 0.9827 1.0000
89.2600 1.9908 1.0000
89.2700 3.9758 1.0000
89.2800 0.0000 1.0000
89.2900 2.0328 1.0000
89.3000 0.9794 1.0000
89.3100 4.9097 1.0000
89.3200 1.9871 1.0000
89.3300 4.9897 1.0000
89.3400 2.0087 1.0000
89.3500 1.0048 1.0000
89.3600 2.9973 1.0000
89.3700 5.9672 1.0000
89.3800 0.0000 1.0000
89.3900 2.9467 1.0000
89.4000 2.0412 1.0000
89.4100 0.9767 1.0000
89.4200 1.9744 1.0000
89.4300 2.0123 1.0000
89.4400 0.9843 1.0000
89.4500 0.9802 1.0000
89.4600 0.9948 1.0000
89.4700 2.9942 1.0000
89.4800 0.0000 1.0000
89.4900 1.0116 1.0000
89.5000 0.9966 1.0000
89.5100 1.0308 1.0000
89.5200 3.0002 1.0000
89.5300 3.9494 1.0000
89.5400 4.9777 1.0000
89.5500 4.9420 1.0000
89.5600 3.0256 1.0000
89.5700 0.0000 1.0000
89.5800 1.9893 1.0000
89.5900 0.0000 1.0000
89.6000 0.0000 1.0000
89.6100 4.0041 1.0000
89.6200 2.0409 1.0000
89.6300 1.0286 1.0000
89.6400 0.9865 1.0000
89.6500 2.9676 1.0000
89.6600 1.9809 1.0000
89.6700 0.9822 1.0000
89.6800 2.0247 1.0000
89.6900 2.9849 1.0000
89.7000 0.0000 1.0000
89.7100 0.0000 1.0000
89.7200 3.9403 1.0000
89.7300 0.9789 1.0000
89.7400 5.0193 1.0000
89.7500 0.0000 1.0000
89.7600 0.0000 1.0000
89.7700 4.0003 1.0000
89.7800 1.9878 1.0000
89.7900 1.9866 1.0000
89.8000 3.9660 1.0000
89.8100 3.9904 1.0000
89.8200 3.0055 1.0000
89.8300 3.0010 1.0000
89.8400 0.9821 1.0000
89.8500 0.0000 1.0000
89.8600 0.0000 1.0000
89.8700 3.9978 1.0000
89.8800 1.0101 1.0000
89.8900 1.3299 1.0000
89.9000 4.0326 1.0000
89.9100 2.9575 1.0000
89.9200 3.9468 1.0000
89.9300 0.9983 1.0000
89.9400 1.9901 1.0000
89.9500 0.9892 1.0000
89.9600 0.9836 1.0000
89.9700 3.9856 1.0000
89.9800 0.9974 1.0000
89.9900 1.0101 1.0000
90.0000 2.9491 1.0000
*RAS_INT_END
*RAS_DATA_END
